Sample Count,55

Sample No.,1
Date & Time,'2021-12-30 13:24:58
Data Type,OPC
Voc (V),39.28
Isc (A),8.918
Pmax (W),228.7857
Vpm (V),29.56
Ipm (A),7.738
EFF (%),11.768
FF,0.652
Tc (degC),15.9
Irr (W/m2),66
Nms,1
Rs (Ohm),0.9216
V (V),I (A),P (W)
0.26,8.895,2.3299
0.52,8.873,4.6481
0.78,8.851,6.9546
1.04,8.828,9.2494
1.30,8.806,11.5324
1.57,8.783,13.8038
1.83,8.761,16.0633
2.09,8.739,18.3112
2.35,8.716,20.5474
2.61,8.694,22.7717
2.88,8.672,24.9845
3.14,8.649,27.1853
3.40,8.627,29.3747
3.66,8.604,31.5522
3.92,8.582,33.7179
4.19,8.560,35.8721
4.45,8.447,37.6132
4.71,8.245,38.8720
4.97,8.230,40.9567
5.23,8.221,43.0655
5.50,8.212,45.1711
5.76,8.206,47.2869
6.02,8.200,49.3995
6.28,8.194,51.5089
6.54,8.188,53.6185
6.80,8.185,55.7386
7.07,8.181,57.8568
7.33,8.177,59.9731
7.59,8.174,62.0875
7.85,8.170,64.2001
8.11,8.167,66.3107
8.38,8.164,68.4248
8.64,8.161,70.5419
8.90,8.159,72.6578
9.16,8.156,74.7724
9.42,8.154,76.8857
9.69,8.151,78.9977
9.95,8.149,81.1084
10.21,8.146,83.2179
10.47,8.144,85.3260
10.73,8.142,87.4329
11.00,8.139,89.5407
11.26,8.137,91.6499
11.52,8.135,93.7581
11.78,8.133,95.8653
12.04,8.131,97.9713
12.30,8.129,100.0764
12.57,8.127,102.1804
12.83,8.125,104.2833
13.09,8.123,106.3852
13.35,8.121,108.4860
13.61,8.119,110.5857
13.88,8.117,112.6844
14.14,8.115,114.7821
14.40,8.113,116.8794
14.66,8.111,118.9758
14.92,8.109,121.0711
15.19,8.107,123.1654
15.45,8.105,125.2586
15.71,8.103,127.3508
15.97,8.101,129.4420
16.23,8.099,131.5322
16.50,8.098,133.6213
16.76,8.096,135.7095
17.02,8.094,137.7965
17.28,8.092,139.8826
17.54,8.090,141.9677
17.81,8.088,144.0483
18.07,8.085,146.1274
18.33,8.083,148.2053
18.59,8.081,150.2820
18.85,8.079,152.3577
19.11,8.077,154.4321
19.38,8.074,156.5055
19.64,8.072,158.5777
19.90,8.070,160.6487
20.16,8.068,162.7187
20.42,8.066,164.7874
20.69,8.064,166.8551
20.95,8.061,168.9136
21.21,8.058,170.9691
21.47,8.056,173.0231
21.73,8.053,175.0758
22.00,8.050,177.1271
22.26,8.048,179.1771
22.52,8.045,181.2256
22.78,8.043,183.2728
23.04,8.040,185.3186
23.31,8.037,187.3630
23.57,8.034,189.3858
23.83,8.030,191.3983
24.09,8.026,193.4087
24.35,8.022,195.4172
24.61,8.018,197.4236
24.88,8.015,199.4279
25.14,8.011,201.4303
25.40,8.006,203.4052
25.66,8.000,205.3633
25.92,7.995,207.3186
26.19,7.990,209.2710
26.45,7.984,211.2207
26.71,7.978,213.1376
26.97,7.970,215.0216
27.23,7.962,216.9016
27.50,7.955,218.7776
27.76,7.944,220.5492
28.02,7.931,222.2861
28.28,7.915,223.9115
28.54,7.894,225.3761
28.81,7.860,226.4523
29.07,7.820,227.3525
29.33,7.768,227.8901
29.59,7.730,228.7831
29.85,7.651,228.4648
30.12,7.588,228.5648
30.38,7.509,228.1601
30.64,7.428,227.6278
30.90,7.327,226.4576
31.16,7.266,226.4840
31.42,7.093,222.9586
31.69,6.994,221.6718
31.95,6.859,219.1757
32.21,6.728,216.7590
32.47,6.563,213.1536
32.73,6.381,208.9396
33.00,6.226,205.4929
33.26,6.093,202.6943
33.52,5.887,197.3712
33.78,5.661,191.2918
34.04,5.502,187.3619
34.31,5.288,181.4659
34.57,5.082,175.7280
34.83,4.837,168.5226
35.09,4.576,160.6056
35.35,4.339,153.4482
35.62,4.037,143.8233
35.88,3.720,133.4827
36.14,3.514,127.0434
36.40,3.309,120.4697
36.66,3.035,111.3180
36.92,2.753,101.6991
37.19,2.537,94.3831
37.45,2.189,81.9905
37.71,1.852,69.8843
37.97,1.561,59.3048
38.23,1.239,47.3877
38.50,0.935,36.0040
38.76,0.631,24.4948
39.02,0.353,13.7781

Sample No.,2
Date & Time,'2021-12-30 13:26:13
Data Type,OPC
Voc (V),39.13
Isc (A),8.916
Pmax (W),226.6825
Vpm (V),29.96
Ipm (A),7.563
EFF (%),11.660
FF,0.649
Tc (degC),15.7
Irr (W/m2),760
Nms,1
Rs (Ohm),0.8987
V (V),I (A),P (W)
0.26,8.893,2.3203
0.52,8.869,4.6284
0.78,8.846,6.9242
1.04,8.822,9.2078
1.30,8.799,11.4789
1.56,8.775,13.7379
1.82,8.752,15.9846
2.08,8.728,18.2188
2.34,8.704,20.4409
2.60,8.681,22.6507
2.87,8.657,24.8483
3.13,8.634,27.0335
3.39,8.610,29.2063
3.65,8.587,31.3669
3.91,8.563,33.5151
4.17,8.539,35.6511
4.43,8.242,36.5591
4.69,8.213,38.5748
4.95,8.199,40.6481
5.21,8.187,42.7234
5.47,8.180,44.8225
5.74,8.173,46.9181
6.00,8.167,49.0102
6.26,8.161,51.1070
6.52,8.157,53.2075
6.78,8.152,55.3057
7.04,8.148,57.4015
7.30,8.143,59.4951
7.56,8.139,61.5864
7.82,8.136,63.6896
8.08,8.134,65.7914
8.34,8.131,67.8918
8.61,8.128,69.9908
8.87,8.126,72.0885
9.13,8.123,74.1848
9.39,8.121,76.2797
9.65,8.118,78.3733
9.91,8.115,80.4655
10.17,8.113,82.5596
10.43,8.111,84.6569
10.69,8.109,86.7532
10.95,8.107,88.8485
11.21,8.105,90.9428
11.48,8.104,93.0361
11.74,8.102,95.1284
12.00,8.100,97.2198
12.26,8.098,99.3102
12.52,8.096,101.3996
12.78,8.094,103.4880
13.04,8.092,105.5754
13.30,8.090,107.6619
13.56,8.088,109.7473
13.82,8.086,111.8299
14.08,8.084,113.9109
14.35,8.082,115.9908
14.61,8.080,118.0696
14.87,8.078,120.1474
15.13,8.076,122.2241
15.39,8.074,124.2997
15.65,8.072,126.3743
15.91,8.070,128.4478
16.17,8.068,130.5202
16.43,8.066,132.5915
16.69,8.064,134.6617
16.95,8.062,136.7307
17.22,8.060,138.7968
17.48,8.057,140.8618
17.74,8.055,142.9257
18.00,8.053,144.9884
18.26,8.051,147.0500
18.52,8.049,149.1105
18.78,8.047,151.1698
19.04,8.044,153.2280
19.30,8.042,155.2851
19.56,8.040,157.3410
19.82,8.038,159.3958
20.09,8.036,161.4494
20.35,8.033,163.4932
20.61,8.030,165.5337
20.87,8.028,167.5728
21.13,8.025,169.6105
21.39,8.022,171.6468
21.65,8.020,173.6817
21.91,8.017,175.7152
22.17,8.014,177.7473
22.43,8.012,179.7780
22.69,8.009,181.8072
22.96,8.005,183.8187
23.22,8.002,185.8211
23.48,7.998,187.8216
23.74,7.994,189.8202
24.00,7.991,191.8168
24.26,7.987,193.8114
24.52,7.983,195.8041
24.78,7.979,197.7880
25.04,7.974,199.7457
25.30,7.969,201.7008
25.56,7.964,203.6533
25.83,7.959,205.6032
26.09,7.954,207.5505
26.35,7.948,209.4607
26.61,7.941,211.3356
26.87,7.933,213.2065
27.13,7.926,215.0736
27.39,7.916,216.8796
27.65,7.905,218.6487
27.91,7.895,220.4121
28.17,7.874,221.8850
28.43,7.848,223.2140
28.70,7.817,224.3720
28.96,7.776,225.2138
29.22,7.729,225.8752
29.48,7.673,226.2373
29.74,7.614,226.4725
30.00,7.549,226.5284
30.26,7.473,226.1982
30.52,7.387,225.5055
30.78,7.281,224.1950
31.04,7.179,222.9026
31.30,7.064,221.1856
31.57,6.948,219.3603
31.83,6.813,216.8688
32.09,6.734,216.1170
32.35,6.615,214.0294
32.61,6.456,210.5754
32.87,6.261,205.8417
33.13,5.990,198.5079
33.39,5.836,194.9063
33.65,5.643,189.9600
33.91,5.447,184.7641
34.17,5.237,179.0007
34.44,4.977,171.4295
34.70,4.783,165.9786
34.96,4.469,156.2558
35.22,4.190,147.5933
35.48,3.888,137.9628
35.74,3.632,129.8309
36.00,3.350,120.6407
36.26,3.109,112.7882
36.52,2.842,103.8409
36.78,2.594,95.4311
37.04,2.346,86.9441
37.31,2.024,75.5362
37.57,1.778,66.8279
37.83,1.466,55.4694
38.09,1.206,45.9440
38.35,0.893,34.2839
38.61,0.605,23.3765
38.87,0.320,12.4597

Sample No.,3
Date & Time,'2021-12-30 13:28:12
Data Type,OPC
Voc (V),39.03
Isc (A),8.852
Pmax (W),223.8507
Vpm (V),29.81
Ipm (A),7.509
EFF (%),11.514
FF,0.647
Tc (degC),14.0
Irr (W/m2),80
Nms,1
Rs (Ohm),0.8950
V (V),I (A),P (W)
0.26,8.828,2.2974
0.52,8.805,4.5827
0.78,8.781,6.8559
1.04,8.758,9.1169
1.30,8.735,11.3658
1.56,8.711,13.6025
1.82,8.688,15.8270
2.08,8.665,18.0394
2.34,8.641,20.2397
2.60,8.618,22.4276
2.86,8.595,24.6037
3.12,8.571,26.7674
3.38,8.548,28.9191
3.64,8.525,31.0584
3.90,8.501,33.1860
4.16,8.478,35.3012
4.42,8.176,36.1695
4.68,8.151,38.1843
4.94,8.138,40.2411
5.20,8.127,42.2977
5.46,8.119,44.3733
5.72,8.112,46.4450
5.98,8.105,48.5130
6.24,8.101,50.5944
6.50,8.096,52.6753
6.76,8.092,54.7540
7.02,8.088,56.8305
7.28,8.084,58.9049
7.54,8.080,60.9777
7.80,8.077,63.0610
8.06,8.075,65.1431
8.32,8.072,67.2239
8.58,8.070,69.3034
8.84,8.067,71.3815
9.10,8.065,73.4584
9.36,8.062,75.5341
9.62,8.060,77.6084
9.88,8.057,79.6814
10.14,8.055,81.7532
10.40,8.053,83.8305
10.66,8.051,85.9072
10.92,8.050,87.9830
11.18,8.048,90.0578
11.44,8.046,92.1318
11.71,8.044,94.2048
11.97,8.042,96.2768
12.23,8.041,98.3480
12.49,8.039,100.4182
12.75,8.037,102.4875
13.01,8.035,104.5558
13.27,8.033,106.6233
13.53,8.032,108.6898
13.79,8.030,110.7553
14.05,8.028,112.8205
14.31,8.026,114.8850
14.57,8.025,116.9486
14.83,8.023,119.0112
15.09,8.021,121.0730
15.35,8.019,123.1339
15.61,8.018,125.1938
15.87,8.016,127.2529
16.13,8.014,129.3110
16.39,8.013,131.3683
16.65,8.011,133.4247
16.91,8.009,135.4801
17.17,8.007,137.5347
17.43,8.006,139.5883
17.69,8.004,141.6411
17.95,8.002,143.6913
18.21,8.000,145.7399
18.47,7.998,147.7876
18.73,7.997,149.8343
18.99,7.995,151.8801
19.25,7.993,153.9248
19.51,7.991,155.9687
19.77,7.989,158.0115
20.03,7.987,160.0534
20.29,7.985,162.0943
20.55,7.983,164.1342
20.81,7.982,166.1732
21.07,7.980,168.2112
21.33,7.978,170.2482
21.59,7.976,172.2755
21.85,7.973,174.2907
22.11,7.970,176.3044
22.37,7.967,178.3167
22.63,7.965,180.3276
22.89,7.962,182.3370
23.16,7.959,184.3450
23.42,7.956,186.3516
23.68,7.954,188.3567
23.94,7.951,190.3604
24.20,7.947,192.3363
24.46,7.942,194.2957
24.72,7.938,196.2528
24.98,7.934,198.2076
25.24,7.929,200.1601
25.50,7.925,202.1103
25.76,7.919,204.0325
26.02,7.913,205.9184
26.28,7.906,207.8007
26.54,7.899,209.6796
26.80,7.891,211.5310
27.06,7.881,213.3089
27.32,7.871,215.0816
27.58,7.858,216.7728
27.84,7.842,218.3603
28.10,7.816,219.6806
28.36,7.786,220.8696
28.62,7.750,221.8464
28.88,7.702,222.4986
29.14,7.657,223.1760
29.40,7.602,223.5512
29.66,7.542,223.7490
29.92,7.478,223.8106
30.18,7.396,223.2719
30.44,7.303,222.3652
30.70,7.204,221.2155
30.96,7.109,220.1746
31.22,7.003,218.6885
31.48,6.894,217.0868
31.74,6.761,214.6772
32.00,6.635,212.3802
32.26,6.487,209.3378
32.52,6.357,206.7959
32.78,6.219,203.9367
33.04,6.002,198.3688
33.30,5.801,193.2265
33.56,5.587,187.5628
33.82,5.399,182.6636
34.08,5.193,177.0516
34.34,4.968,170.6594
34.61,4.724,163.5214
34.87,4.566,159.2387
35.13,4.259,149.6447
35.39,3.990,141.2441
35.65,3.704,132.0587
35.91,3.431,123.2324
36.17,3.128,113.1507
36.43,2.902,105.7335
36.69,2.652,97.3336
36.95,2.381,88.0156
37.21,2.124,79.0526
37.47,1.782,66.8049
37.73,1.474,55.6295
37.99,1.159,44.0564
38.25,0.877,33.5641
38.51,0.590,22.7258
38.77,0.298,11.5715

Sample No.,4
Date & Time,'2021-12-30 13:29:02
Data Type,OPC
Voc (V),38.97
Isc (A),8.716
Pmax (W),221.9345
Vpm (V),29.73
Ipm (A),7.464
EFF (%),11.416
FF,0.653
Tc (degC),14.1
Irr (W/m2),748
Nms,1
Rs (Ohm),0.9105
V (V),I (A),P (W)
0.25,8.694,2.2590
0.51,8.673,4.5067
0.77,8.651,6.7431
1.03,8.629,8.9682
1.29,8.607,11.1818
1.55,8.585,13.3842
1.81,8.563,15.5752
2.07,8.542,17.7549
2.33,8.520,19.9232
2.59,8.498,22.0802
2.85,8.476,24.2258
3.11,8.454,26.3601
3.37,8.433,28.4831
3.63,8.411,30.5947
3.89,8.389,32.6951
4.15,8.367,34.7839
4.41,8.082,35.6993
4.67,8.060,37.6939
4.93,8.046,39.7206
5.19,8.037,41.7639
5.45,8.028,43.8024
5.71,8.022,45.8552
5.97,8.016,47.9062
6.23,8.011,49.9542
6.49,8.005,51.9993
6.75,8.002,54.0559
7.01,7.999,56.1145
7.27,7.996,58.1716
7.53,7.993,60.2271
7.79,7.990,62.2812
8.05,7.987,64.3337
8.31,7.984,66.3847
8.57,7.981,68.4342
8.83,7.979,70.4883
9.09,7.977,72.5437
9.35,7.975,74.5981
9.61,7.973,76.6515
9.87,7.971,78.7038
10.13,7.969,80.7552
10.39,7.967,82.8055
10.65,7.965,84.8549
10.91,7.963,86.9032
11.17,7.961,88.9505
11.43,7.959,90.9968
11.69,7.958,93.0420
11.95,7.956,95.0868
12.21,7.954,97.1315
12.47,7.952,99.1752
12.73,7.950,101.2180
12.99,7.948,103.2599
13.25,7.946,105.3007
13.51,7.945,107.3407
13.77,7.943,109.3796
14.02,7.941,111.4176
14.28,7.939,113.4547
14.54,7.937,115.4908
14.80,7.935,117.5260
15.06,7.934,119.5602
15.32,7.932,121.5934
15.58,7.930,123.6235
15.84,7.928,125.6526
16.10,7.926,127.6806
16.36,7.924,129.7075
16.62,7.922,131.7335
16.88,7.920,133.7584
17.14,7.918,135.7823
17.40,7.916,137.8051
17.66,7.914,139.8269
17.92,7.912,141.8477
18.18,7.910,143.8675
18.44,7.908,145.8863
18.70,7.906,147.9026
18.96,7.904,149.9144
19.22,7.901,151.9251
19.48,7.899,153.9346
19.74,7.897,155.9430
20.00,7.895,157.9502
20.26,7.893,159.9563
20.52,7.890,161.9611
20.78,7.888,163.9648
21.04,7.886,165.9674
21.30,7.884,167.9688
21.56,7.881,169.9690
21.82,7.878,171.9530
22.08,7.875,173.9322
22.34,7.872,175.9097
22.60,7.869,177.8857
22.86,7.866,179.8601
23.12,7.863,181.8329
23.38,7.860,183.8041
23.64,7.857,185.7737
23.90,7.853,187.7305
24.16,7.849,189.6629
24.42,7.844,191.5929
24.68,7.840,193.5207
24.94,7.836,195.4461
25.20,7.831,197.3692
25.46,7.826,199.2786
25.72,7.820,201.1675
25.98,7.815,203.0536
26.24,7.809,204.9367
26.50,7.804,206.8169
26.76,7.797,208.6556
27.02,7.788,210.4586
27.28,7.780,212.2573
27.54,7.771,214.0193
27.80,7.756,215.6360
28.05,7.739,217.1796
28.31,7.714,218.4814
28.57,7.678,219.4606
28.83,7.642,220.4049
29.09,7.598,221.1219
29.35,7.546,221.5668
29.61,7.488,221.8045
29.87,7.393,220.9006
30.13,7.309,220.2931
30.39,7.228,219.7185
30.65,7.111,218.0270
30.91,7.014,216.8647
31.17,6.917,215.6760
31.43,6.748,212.1697
31.69,6.593,208.9803
31.95,6.460,206.4616
32.21,6.288,202.6026
32.47,6.158,200.0030
32.73,5.993,196.2054
32.99,5.833,192.4772
33.25,5.659,188.2021
33.51,5.479,183.6343
33.77,5.320,179.7025
34.03,5.128,174.5638
34.29,4.941,169.4756
34.55,4.729,163.4119
34.81,4.479,155.9436
35.07,4.209,147.6427
35.33,3.933,139.0052
35.59,3.642,129.6448
35.85,3.360,120.4778
36.11,3.184,115.0111
36.37,2.848,103.5984
36.63,2.578,94.4588
36.89,2.283,84.2387
37.15,2.027,75.3149
37.41,1.748,65.4013
37.67,1.448,54.5828
37.93,1.130,42.8972
38.19,0.843,32.2041
38.45,0.541,20.8397
38.71,0.268,10.3866

Sample No.,5
Date & Time,'2021-12-30 13:29:39
Data Type,OPC
Voc (V),38.98
Isc (A),8.592
Pmax (W),220.9819
Vpm (V),29.90
Ipm (A),7.390
EFF (%),11.367
FF,0.659
Tc (degC),14.1
Irr (W/m2),99
Nms,1
Rs (Ohm),0.8697
V (V),I (A),P (W)
0.25,8.571,2.2278
0.51,8.551,4.4450
0.77,8.530,6.6516
1.03,8.510,8.8474
1.29,8.489,11.0327
1.55,8.469,13.2073
1.81,8.448,15.3712
2.07,8.428,17.5245
2.33,8.407,19.6670
2.59,8.387,21.7989
2.85,8.366,23.9203
3.11,8.346,26.0308
3.37,8.325,28.1308
3.63,8.305,30.2202
3.89,8.284,32.2988
4.15,8.264,34.3668
4.41,7.999,35.3456
4.67,7.986,37.3611
4.93,7.975,39.3827
5.19,7.967,41.4144
5.45,7.959,43.4420
5.71,7.953,45.4799
5.97,7.949,47.5200
6.23,7.944,49.5578
6.49,7.940,51.5931
6.75,7.935,53.6262
7.01,7.932,55.6680
7.27,7.929,57.7091
7.53,7.927,59.7488
7.79,7.924,61.7870
8.05,7.921,63.8237
8.31,7.918,65.8590
8.57,7.915,67.8928
8.83,7.912,69.9253
9.09,7.911,71.9646
9.35,7.909,74.0029
9.61,7.907,76.0402
9.87,7.905,78.0766
10.13,7.903,80.1119
10.39,7.901,82.1462
10.65,7.899,84.1796
10.91,7.897,86.2119
11.17,7.895,88.2433
11.43,7.893,90.2737
11.69,7.891,92.3031
11.95,7.890,94.3315
12.21,7.888,96.3594
12.47,7.886,98.3864
12.73,7.884,100.4124
12.99,7.882,102.4374
13.25,7.880,104.4615
13.51,7.878,106.4845
13.77,7.877,108.5067
14.03,7.875,110.5278
14.29,7.873,112.5480
14.55,7.871,114.5672
14.81,7.869,116.5854
15.07,7.867,118.6027
15.33,7.865,120.6167
15.59,7.863,122.6277
15.85,7.861,124.6376
16.11,7.859,126.6465
16.37,7.857,128.6542
16.63,7.855,130.6608
16.89,7.852,132.6663
17.15,7.850,134.6706
17.41,7.848,136.6739
17.67,7.846,138.6761
17.93,7.844,140.6771
18.19,7.842,142.6748
18.45,7.839,144.6680
18.71,7.837,146.6600
18.97,7.834,148.6507
19.23,7.832,150.6401
19.49,7.829,152.6282
19.75,7.827,154.6151
20.01,7.825,156.6008
20.27,7.822,158.5851
20.53,7.820,160.5682
20.79,7.817,162.5462
21.05,7.814,164.5189
21.31,7.811,166.4900
21.57,7.809,168.4597
21.83,7.806,170.4280
22.09,7.803,172.3948
22.35,7.800,174.3601
22.61,7.797,176.3239
22.87,7.795,178.2863
23.13,7.791,180.2322
23.39,7.787,182.1698
23.65,7.784,184.1054
23.91,7.780,186.0391
24.17,7.776,187.9708
24.43,7.772,189.9007
24.69,7.769,191.8285
24.95,7.764,193.7251
25.21,7.759,195.6182
25.47,7.754,197.5086
25.73,7.749,199.3965
25.99,7.744,201.2818
26.25,7.738,203.1387
26.51,7.732,204.9844
26.77,7.725,206.8268
27.03,7.719,208.6660
27.29,7.711,210.4485
27.55,7.701,212.1855
27.81,7.692,213.9174
28.06,7.677,215.5019
28.32,7.660,217.0177
28.58,7.635,218.2888
28.84,7.600,219.2742
29.10,7.566,220.2507
29.36,7.511,220.5990
29.62,7.457,220.9665
29.88,7.393,220.9767
30.14,7.313,220.4815
30.40,7.218,219.5042
30.66,7.119,218.3606
30.92,7.032,217.5198
31.18,6.932,216.2136
31.44,6.806,214.0548
31.70,6.695,212.3084
31.96,6.533,208.8634
32.22,6.398,206.2001
32.48,6.266,203.5979
32.74,6.117,200.3305
33.00,5.965,196.9010
33.26,5.803,193.0600
33.52,5.608,188.0331
33.78,5.371,181.4847
34.04,5.180,176.3993
34.30,4.951,169.8699
34.56,4.681,161.8192
34.82,4.424,154.1065
35.08,4.195,147.1958
35.34,3.926,138.8068
35.60,3.707,132.0139
35.86,3.457,124.0188
36.12,3.223,116.4516
36.38,2.951,107.4039
36.64,2.696,98.8145
36.90,2.397,88.4676
37.16,2.142,79.6293
37.42,1.870,70.0045
37.68,1.555,58.6261
37.94,1.207,45.8236
38.20,0.899,34.3480
38.46,0.612,23.5705
38.72,0.321,12.4411

Sample No.,6
Date & Time,'2021-12-30 13:31:00
Data Type,OPC
Voc (V),38.97
Isc (A),8.615
Pmax (W),222.9474
Vpm (V),29.69
Ipm (A),7.506
EFF (%),11.468
FF,0.664
Tc (degC),14.2
Irr (W/m2),729
Nms,1
Rs (Ohm),0.8929
V (V),I (A),P (W)
0.25,8.595,2.2331
0.51,8.576,4.4562
0.77,8.556,6.6692
1.03,8.537,8.8721
1.29,8.518,11.0649
1.55,8.498,13.2476
1.81,8.479,15.4202
2.07,8.459,17.5828
2.33,8.440,19.7352
2.59,8.420,21.8775
2.85,8.401,24.0097
3.11,8.382,26.1319
3.37,8.362,28.2440
3.63,8.343,30.3460
3.89,8.323,32.4378
4.15,8.304,34.5196
4.41,8.065,35.6237
4.67,8.045,37.6239
4.93,8.033,39.6538
5.19,8.022,41.6852
5.45,8.016,43.7338
5.71,8.010,45.7825
5.97,8.004,47.8282
6.23,7.998,49.8749
6.49,7.995,51.9286
6.75,7.991,53.9803
7.01,7.987,56.0301
7.27,7.983,58.0779
7.53,7.980,60.1238
7.79,7.977,62.1742
8.05,7.974,64.2282
8.31,7.972,66.2809
8.57,7.970,68.3325
8.83,7.968,70.3829
9.09,7.965,72.4321
9.35,7.963,74.4801
9.61,7.961,76.5269
9.87,7.958,78.5725
10.13,7.956,80.6170
10.39,7.954,82.6649
10.65,7.952,84.7118
10.91,7.950,86.7578
11.17,7.949,88.8029
11.43,7.947,90.8469
11.69,7.945,92.8901
11.95,7.943,94.9322
12.21,7.941,96.9734
12.47,7.939,99.0137
12.73,7.938,101.0530
12.99,7.936,103.0913
13.24,7.934,105.1287
13.50,7.932,107.1646
13.76,7.930,109.1994
14.02,7.928,111.2333
14.28,7.926,113.2662
14.54,7.924,115.2980
14.80,7.923,117.3289
15.06,7.921,119.3589
15.32,7.919,121.3878
15.58,7.917,123.4158
15.84,7.915,125.4428
16.10,7.913,127.4688
16.36,7.911,129.4938
16.62,7.909,131.5161
16.88,7.907,133.5368
17.14,7.905,135.5565
17.40,7.903,137.5751
17.66,7.901,139.5927
17.92,7.899,141.6092
18.18,7.897,143.6246
18.44,7.895,145.6390
18.70,7.893,147.6524
18.96,7.891,149.6647
19.22,7.889,151.6759
19.48,7.887,153.6849
19.74,7.885,155.6891
20.00,7.882,157.6922
20.26,7.880,159.6940
20.52,7.878,161.6947
20.78,7.875,163.6941
21.04,7.873,165.6924
21.30,7.871,167.6896
21.56,7.869,169.6855
21.82,7.866,171.6802
22.08,7.864,173.6738
22.34,7.861,175.6529
22.60,7.858,177.6256
22.86,7.855,179.5968
23.12,7.852,181.5664
23.38,7.849,183.5343
23.64,7.846,185.5007
23.90,7.843,187.4654
24.16,7.840,189.4286
24.42,7.835,191.3609
24.68,7.831,193.2861
24.94,7.826,195.2090
25.20,7.822,197.1296
25.46,7.817,199.0478
25.72,7.813,200.9526
25.98,7.807,202.8331
26.23,7.801,204.7107
26.49,7.795,206.5853
26.75,7.790,208.4569
27.01,7.782,210.2648
27.27,7.773,212.0647
27.53,7.765,213.8603
27.79,7.754,215.5662
28.05,7.742,217.2403
28.31,7.724,218.7563
28.57,7.699,220.0453
28.83,7.667,221.1021
29.09,7.627,221.9285
29.35,7.579,222.5143
29.61,7.524,222.8680
29.87,7.452,222.6659
30.13,7.372,222.1895
30.39,7.296,221.7992
30.65,7.206,220.9150
30.91,7.136,220.6223
31.17,7.002,218.3069
31.43,6.857,215.5621
31.69,6.714,212.8322
31.95,6.564,209.7795
32.21,6.445,207.6336
32.47,6.278,203.9048
32.73,6.132,200.7430
32.99,5.944,196.1513
33.25,5.724,190.3668
33.51,5.551,186.0559
33.77,5.338,180.3071
34.03,5.147,175.2010
34.29,4.958,170.0428
34.55,4.727,163.3677
34.81,4.536,157.9197
35.07,4.284,150.2709
35.33,4.019,142.0196
35.59,3.755,133.6521
35.85,3.485,124.9590
36.11,3.194,115.3649
36.37,2.940,106.9648
36.63,2.664,97.6200
36.89,2.398,88.4769
37.15,2.107,78.2979
37.41,1.813,67.8293
37.67,1.507,56.7717
37.93,1.204,45.6977
38.19,0.904,34.5312
38.45,0.596,22.9364
38.71,0.330,12.7793

Sample No.,7
Date & Time,'2021-12-30 13:31:56
Data Type,OPC
Voc (V),38.99
Isc (A),8.912
Pmax (W),226.0619
Vpm (V),29.62
Ipm (A),7.631
EFF (%),11.628
FF,0.650
Tc (degC),14.3
Irr (W/m2),96
Nms,1
Rs (Ohm),0.8514
V (V),I (A),P (W)
0.25,8.888,2.3107
0.51,8.865,4.6094
0.77,8.842,6.8958
1.03,8.818,9.1702
1.29,8.795,11.4323
1.55,8.771,13.6824
1.81,8.748,15.9203
2.07,8.725,18.1459
2.33,8.701,20.3594
2.59,8.678,22.5610
2.85,8.655,24.7502
3.11,8.631,26.9273
3.37,8.608,29.0922
3.63,8.584,31.2450
3.89,8.561,33.3855
4.15,8.538,35.5141
4.41,8.233,36.3866
4.67,8.213,38.4357
4.93,8.200,40.5074
5.19,8.190,42.5869
5.45,8.182,44.6688
5.71,8.176,46.7641
5.97,8.171,48.8565
6.23,8.165,50.9459
6.49,8.159,53.0325
6.75,8.156,55.1289
7.01,8.152,57.2236
7.27,8.148,59.3164
7.53,8.145,61.4073
7.79,8.141,63.4963
8.05,8.137,65.5834
8.31,8.134,67.6712
8.57,8.132,69.7669
8.83,8.130,71.8613
9.09,8.127,73.9546
9.35,8.125,76.0468
9.61,8.123,78.1378
9.87,8.121,80.2276
10.13,8.119,82.3163
10.39,8.116,84.4038
10.65,8.114,86.4902
10.91,8.112,88.5754
11.17,8.110,90.6594
11.43,8.108,92.7469
11.69,8.106,94.8336
11.95,8.104,96.9194
12.21,8.102,99.0043
12.47,8.101,101.0882
12.73,8.099,103.1712
12.99,8.097,105.2532
13.25,8.095,107.3343
13.51,8.093,109.4145
13.77,8.092,111.4937
14.03,8.090,113.5720
14.29,8.088,115.6494
14.55,8.086,117.7258
14.81,8.084,119.8013
15.07,8.083,121.8767
15.33,8.081,123.9514
15.59,8.079,126.0252
15.85,8.077,128.0982
16.11,8.076,130.1702
16.37,8.074,132.2413
16.63,8.072,134.3116
16.89,8.070,136.3809
17.15,8.069,138.4493
17.41,8.067,140.5169
17.67,8.065,142.5835
17.93,8.063,144.6492
18.19,8.062,146.7141
18.45,8.060,148.7780
18.71,8.058,150.8410
18.97,8.056,152.8993
19.23,8.054,154.9546
19.49,8.052,157.0088
19.75,8.050,159.0620
20.01,8.048,161.1141
20.27,8.046,163.1652
20.53,8.044,165.2152
20.79,8.042,167.2641
21.05,8.040,169.3120
21.31,8.038,171.3588
21.57,8.036,173.4046
21.83,8.034,175.4493
22.09,8.032,177.4929
22.35,8.029,179.5209
22.61,8.026,181.5361
22.87,8.023,183.5496
23.13,8.020,185.5615
23.39,8.016,187.5718
23.65,8.013,189.5803
23.91,8.010,191.5873
24.17,8.007,193.5925
24.43,8.004,195.5944
24.69,7.999,197.5619
24.95,7.994,199.5270
25.21,7.990,201.4897
25.47,7.985,203.4500
25.73,7.981,205.4079
25.99,7.976,207.3634
26.25,7.968,209.2386
26.51,7.961,211.1092
26.77,7.953,212.9758
27.03,7.945,214.8139
27.29,7.934,216.5769
27.55,7.923,218.3342
27.81,7.906,219.9274
28.07,7.885,221.3873
28.33,7.856,222.6193
28.59,7.820,223.6453
28.85,7.773,224.3213
29.11,7.726,224.9624
29.37,7.679,225.5827
29.63,7.627,226.0405
29.89,7.545,225.5806
30.15,7.479,225.5501
30.41,7.374,224.3071
30.67,7.284,223.4631
30.93,7.171,221.8607
31.19,7.068,220.4951
31.45,6.960,218.9577
31.71,6.834,216.7697
31.97,6.677,213.5344
32.23,6.540,210.8538
32.49,6.412,208.3694
32.75,6.236,204.2874
33.01,6.086,200.9467
33.27,5.877,195.5945
33.53,5.684,190.6426
33.79,5.465,184.7203
34.05,5.279,179.8045
34.31,5.072,174.0642
34.57,4.837,167.2507
34.83,4.562,158.9287
35.09,4.293,150.6905
35.35,4.040,142.8484
35.61,3.778,134.5697
35.87,3.529,126.6116
36.13,3.212,116.1001
36.39,2.968,108.0245
36.65,2.725,99.8975
36.91,2.402,88.6719
37.17,2.139,79.5494
37.43,1.866,69.8837
37.69,1.498,56.4928
37.95,1.249,47.4247
38.21,0.892,34.1026
38.47,0.603,23.2280
38.73,0.325,12.5963

Sample No.,8
Date & Time,'2021-12-30 13:40:46
Data Type,OPC
Voc (V),38.77
Isc (A),8.934
Pmax (W),223.4109
Vpm (V),29.65
Ipm (A),7.533
EFF (%),11.492
FF,0.644
Tc (degC),14.6
Irr (W/m2),754
Nms,1
Rs (Ohm),0.7716
V (V),I (A),P (W)
0.25,8.910,2.3032
0.51,8.887,4.5944
0.77,8.863,6.8733
1.03,8.840,9.1401
1.29,8.816,11.3947
1.55,8.793,13.6372
1.80,8.769,15.8675
2.06,8.745,18.0857
2.32,8.722,20.2917
2.58,8.698,22.4855
2.84,8.675,24.6672
3.10,8.651,26.8366
3.36,8.628,28.9939
3.61,8.604,31.1391
3.87,8.581,33.2720
4.13,8.557,35.3930
4.39,8.366,36.7629
4.65,8.226,38.2770
4.91,8.212,40.3324
5.16,8.200,42.3947
5.42,8.192,44.4704
5.68,8.184,46.5420
5.94,8.177,48.6189
6.20,8.173,50.7045
6.46,8.168,52.7878
6.72,8.164,54.8687
6.97,8.159,56.9473
7.23,8.155,59.0238
7.49,8.152,61.1099
7.75,8.149,63.1945
8.01,8.146,65.2776
8.27,8.143,67.3592
8.53,8.140,69.4393
8.78,8.137,71.5179
9.04,8.134,73.5949
9.30,8.131,75.6705
9.56,8.129,77.7490
9.82,8.127,79.8336
10.08,8.125,81.9173
10.33,8.124,84.0002
10.59,8.122,86.0821
10.85,8.120,88.1632
11.11,8.119,90.2434
11.37,8.117,92.3227
11.63,8.115,94.4011
11.89,8.114,96.4787
12.14,8.112,98.5553
12.40,8.110,100.6311
12.66,8.108,102.7060
12.92,8.107,104.7801
13.18,8.105,106.8532
13.44,8.103,108.9266
13.69,8.102,111.0020
13.95,8.101,113.0765
14.21,8.099,115.1504
14.47,8.098,117.2235
14.73,8.096,119.2959
14.99,8.095,121.3676
15.25,8.093,123.4385
15.50,8.092,125.5087
15.76,8.091,127.5781
16.02,8.089,129.6469
16.28,8.088,131.7149
16.54,8.086,133.7821
16.80,8.085,135.8486
17.06,8.084,137.9144
17.31,8.082,139.9795
17.57,8.081,142.0438
17.83,8.079,144.1074
18.09,8.078,146.1703
18.35,8.076,148.2285
18.61,8.075,150.2849
18.86,8.073,152.3405
19.12,8.071,154.3951
19.38,8.069,156.4490
19.64,8.068,158.5019
19.90,8.066,160.5540
20.16,8.064,162.6052
20.42,8.063,164.6556
20.67,8.061,166.7051
20.93,8.059,168.7537
21.19,8.058,170.8014
21.45,8.056,172.8483
21.71,8.054,174.8943
21.97,8.053,176.9394
22.22,8.051,178.9837
22.48,8.048,181.0066
22.74,8.046,183.0253
23.00,8.043,185.0427
23.26,8.040,187.0586
23.52,8.038,189.0731
23.78,8.035,191.0862
24.03,8.032,193.0980
24.29,8.029,195.1083
24.55,8.027,197.1172
24.81,8.024,199.1247
25.07,8.019,201.0789
25.33,8.014,203.0227
25.59,8.009,204.9639
25.84,8.004,206.9024
26.10,7.999,208.8383
26.36,7.992,210.7181
26.62,7.981,212.5125
26.88,7.971,214.3017
27.14,7.955,215.9299
27.39,7.935,217.4262
27.65,7.909,218.7489
27.91,7.872,219.7744
28.17,7.840,220.9099
28.43,7.804,221.9112
28.69,7.759,222.6406
28.95,7.697,222.8579
29.20,7.641,223.1895
29.46,7.576,223.2661
29.72,7.515,223.4096
29.98,7.423,222.5910
30.24,7.327,221.5925
30.50,7.226,220.4216
30.75,7.127,219.2412
31.01,7.041,218.4260
31.27,6.881,215.2460
31.53,6.656,209.9288
31.79,6.523,207.4084
32.05,6.343,203.3322
32.31,6.187,199.9286
32.56,6.080,198.0320
32.82,5.837,191.6302
33.08,5.648,186.8800
33.34,5.477,182.6458
33.60,5.314,178.5873
33.86,5.146,174.2713
34.12,4.953,169.0128
34.37,4.728,162.5751
34.63,4.503,155.9722
34.89,4.251,148.3546
35.15,3.995,140.4536
35.41,3.743,132.5509
35.67,3.422,122.1011
35.92,3.124,112.2596
36.18,2.901,104.9912
36.44,2.633,95.9951
36.70,2.411,88.4963
36.96,2.129,78.7317
37.22,1.847,68.7629
37.48,1.516,56.8210
37.73,1.200,45.2962
37.99,0.954,36.2765
38.25,0.614,23.5130
38.51,0.285,10.9785

Sample No.,9
Date & Time,'2021-12-30 13:41:16
Data Type,OPC
Voc (V),38.76
Isc (A),8.936
Pmax (W),223.2466
Vpm (V),29.30
Ipm (A),7.617
EFF (%),11.483
FF,0.644
Tc (degC),14.9
Irr (W/m2),75
Nms,1
Rs (Ohm),0.8362
V (V),I (A),P (W)
0.25,8.913,2.3035
0.51,8.889,4.5948
0.77,8.865,6.8737
1.03,8.841,9.1404
1.29,8.817,11.3948
1.55,8.794,13.6369
1.80,8.770,15.8668
2.06,8.746,18.0844
2.32,8.722,20.2896
2.58,8.699,22.4826
2.84,8.675,24.6632
3.10,8.651,26.8319
3.35,8.627,28.9880
3.61,8.604,31.1320
3.87,8.580,33.2634
4.13,8.556,35.3827
4.39,8.253,36.2606
4.65,8.229,38.2835
4.91,8.216,40.3478
5.16,8.205,42.4122
5.42,8.198,44.4982
5.68,8.192,46.5810
5.94,8.186,48.6604
6.20,8.180,50.7424
6.46,8.176,52.8305
6.71,8.172,54.9165
6.97,8.168,57.0004
7.23,8.164,59.0822
7.49,8.160,61.1619
7.75,8.156,63.2436
8.01,8.154,65.3328
8.27,8.152,67.4209
8.52,8.149,69.5077
8.78,8.147,71.5933
9.04,8.145,73.6777
9.30,8.142,75.7609
9.56,8.140,77.8429
9.82,8.138,79.9236
10.07,8.135,82.0032
10.33,8.133,84.0815
10.59,8.131,86.1635
10.85,8.129,88.2479
11.11,8.128,90.3315
11.37,8.126,92.4143
11.63,8.125,94.4963
11.88,8.123,96.5775
12.14,8.121,98.6578
12.40,8.120,100.7373
12.66,8.118,102.8161
12.92,8.117,104.8940
13.18,8.115,106.9710
13.43,8.114,109.0473
13.69,8.112,111.1228
13.95,8.110,113.1974
14.21,8.109,115.2712
14.47,8.107,117.3442
14.73,8.106,119.4172
14.98,8.104,121.4914
15.24,8.103,123.5648
15.50,8.102,125.6375
15.76,8.100,127.7095
16.02,8.099,129.7807
16.28,8.097,131.8513
16.54,8.096,133.9211
16.79,8.095,135.9902
17.05,8.093,138.0586
17.31,8.092,140.1262
17.57,8.090,142.1932
17.83,8.089,144.2594
18.09,8.088,146.3249
18.34,8.086,148.3897
18.60,8.085,150.4537
18.86,8.083,152.5170
19.12,8.082,154.5797
19.38,8.081,156.6415
19.64,8.079,158.6981
19.90,8.077,160.7493
20.15,8.075,162.7996
20.41,8.073,164.8490
20.67,8.072,166.8973
20.93,8.070,168.9447
21.19,8.068,170.9912
21.45,8.066,173.0367
21.70,8.064,175.0812
21.96,8.062,177.1248
22.22,8.061,179.1674
22.48,8.059,181.2090
22.74,8.057,183.2497
23.00,8.055,185.2895
23.26,8.053,187.3265
23.51,8.050,189.3317
23.77,8.047,191.3352
24.03,8.043,193.3371
24.29,8.040,195.3373
24.55,8.037,197.3358
24.81,8.034,199.3327
25.06,8.030,201.3278
25.32,8.027,203.3213
25.58,8.022,205.2576
25.84,8.015,207.1577
26.10,8.008,209.0543
26.36,8.002,210.9475
26.62,7.992,212.7711
26.87,7.980,214.5129
27.13,7.966,216.1987
27.39,7.937,217.4568
27.65,7.906,218.6581
27.91,7.875,219.8184
28.17,7.839,220.8341
28.42,7.799,221.7395
28.68,7.745,222.2102
28.94,7.686,222.4955
29.20,7.638,223.0899
29.46,7.568,222.9938
29.72,7.506,223.1123
29.97,7.420,222.4709
30.23,7.282,220.2079
30.49,7.190,219.2818
30.75,7.055,216.9794
31.01,6.977,216.3987
31.27,6.820,213.2895
31.53,6.661,210.0547
31.78,6.533,207.6794
32.04,6.412,205.4989
32.30,6.249,201.8983
32.56,6.086,198.1915
32.82,5.876,192.8974
33.08,5.673,187.6813
33.33,5.454,181.8403
33.59,5.265,176.8967
33.85,5.057,171.2250
34.11,4.843,165.2373
34.37,4.630,159.1553
34.63,4.335,150.1627
34.89,3.918,136.7225
35.14,3.770,132.5437
35.40,3.480,123.2322
35.66,3.236,115.4327
35.92,2.971,106.7656
36.18,2.715,98.2496
36.44,2.500,91.1151
36.69,2.246,82.4343
36.95,1.970,72.8412
37.21,1.728,64.3380
37.47,1.470,55.0951
37.73,1.177,44.4196
37.99,0.877,33.3427
38.25,0.592,22.6643
38.50,0.271,10.4515

Sample No.,10
Date & Time,'2021-12-30 13:42:08
Data Type,OPC
Voc (V),38.73
Isc (A),8.994
Pmax (W),224.4491
Vpm (V),29.27
Ipm (A),7.666
EFF (%),11.545
FF,0.644
Tc (degC),15.3
Irr (W/m2),760
Nms,1
Rs (Ohm),0.8637
V (V),I (A),P (W)
0.25,8.971,2.3169
0.51,8.948,4.6219
0.77,8.925,6.9149
1.03,8.901,9.1958
1.29,8.878,11.4648
1.54,8.855,13.7217
1.80,8.832,15.9666
2.06,8.808,18.1994
2.32,8.785,20.4203
2.58,8.762,22.6293
2.84,8.739,24.8263
3.09,8.715,27.0111
3.35,8.692,29.1840
3.61,8.669,31.3448
3.87,8.645,33.4936
4.13,8.622,35.6303
4.39,8.597,37.7449
4.64,8.287,38.5254
4.90,8.271,40.5858
5.16,8.258,42.6550
5.42,8.250,44.7461
5.68,8.242,46.8332
5.93,8.235,48.9170
6.19,8.230,51.0165
6.45,8.226,53.1138
6.71,8.221,55.2087
6.97,8.217,57.3013
7.23,8.213,59.3917
7.48,8.209,61.4846
7.74,8.206,63.5830
8.00,8.203,65.6801
8.26,8.201,67.7756
8.52,8.198,69.8698
8.78,8.195,71.9625
9.03,8.192,74.0537
9.29,8.189,76.1435
9.55,8.187,78.2318
9.81,8.184,80.3228
10.07,8.182,82.4200
10.33,8.181,84.5164
10.58,8.179,86.6120
10.84,8.178,88.7067
11.10,8.176,90.8005
11.36,8.174,92.8935
11.62,8.173,94.9857
11.87,8.171,97.0770
12.13,8.169,99.1675
12.39,8.168,101.2571
12.65,8.166,103.3459
12.91,8.164,105.4338
13.17,8.163,107.5209
13.42,8.161,109.6071
13.68,8.160,111.6925
13.94,8.158,113.7788
14.20,8.157,115.8656
14.46,8.155,117.9518
14.72,8.154,120.0372
14.97,8.152,122.1219
15.23,8.151,124.2058
15.49,8.149,126.2890
15.75,8.148,128.3715
16.01,8.147,130.4533
16.27,8.145,132.5343
16.52,8.144,134.6146
16.78,8.142,136.6941
17.04,8.141,138.7730
17.30,8.140,140.8510
17.56,8.138,142.9284
17.81,8.137,145.0050
18.07,8.135,147.0809
18.33,8.134,149.1561
18.59,8.132,151.2305
18.85,8.131,153.2973
19.11,8.129,155.3627
19.36,8.127,157.4272
19.62,8.125,159.4908
19.88,8.123,161.5534
20.14,8.122,163.6151
20.40,8.120,165.6759
20.66,8.118,167.7357
20.91,8.116,169.7946
21.17,8.114,171.8526
21.43,8.113,173.9096
21.69,8.111,175.9657
21.95,8.109,178.0209
22.21,8.107,180.0751
22.46,8.105,182.1273
22.72,8.103,184.1581
22.98,8.100,186.1874
23.24,8.097,188.2152
23.50,8.094,190.2417
23.75,8.092,192.2667
24.01,8.089,194.2904
24.27,8.086,196.3125
24.53,8.083,198.3333
24.79,8.081,200.3526
25.05,8.078,202.3643
25.30,8.072,204.3033
25.56,8.066,206.2394
25.82,8.060,208.1724
26.08,8.054,210.1025
26.34,8.047,211.9982
26.60,8.037,213.7956
26.85,8.026,215.5874
27.11,8.009,217.1950
27.37,7.986,218.6251
27.63,7.960,219.9808
27.89,7.928,221.1420
28.15,7.895,222.2547
28.40,7.849,222.9796
28.66,7.797,223.5311
28.92,7.749,224.1497
29.18,7.686,224.3173
29.44,7.620,224.3606
29.69,7.551,224.2733
29.95,7.468,223.7419
30.21,7.376,222.9029
30.47,7.272,221.6225
30.73,7.149,219.7123
30.99,7.060,218.8086
31.24,6.914,216.0606
31.50,6.780,213.6324
31.76,6.622,210.3651
32.02,6.464,207.0257
32.28,6.325,204.2160
32.54,6.187,201.3402
32.79,5.989,196.4335
33.05,5.795,191.5973
33.31,5.603,186.6763
33.57,5.412,181.7264
33.83,5.171,174.9634
34.09,4.980,169.7949
34.34,4.766,163.7283
34.60,4.454,154.1646
34.86,4.273,149.0007
35.12,3.918,137.6445
35.38,3.616,127.9725
35.63,3.376,120.3332
35.89,3.102,111.3736
36.15,2.841,102.7305
36.41,2.576,93.8363
36.67,2.320,85.1127
36.93,2.060,76.0973
37.18,1.860,69.1913
37.44,1.484,55.6093
37.70,1.176,44.3442
37.96,0.906,34.4084
38.22,0.609,23.3107
38.48,0.278,10.7142

Sample No.,11
Date & Time,'2021-12-30 13:42:33
Data Type,OPC
Voc (V),38.70
Isc (A),8.963
Pmax (W),224.3395
Vpm (V),29.50
Ipm (A),7.603
EFF (%),11.540
FF,0.646
Tc (degC),15.4
Irr (W/m2),76
Nms,1
Rs (Ohm),0.8252
V (V),I (A),P (W)
0.25,8.940,2.3071
0.51,8.916,4.6021
0.77,8.893,6.8850
1.03,8.869,9.1557
1.29,8.846,11.4144
1.54,8.822,13.6609
1.80,8.799,15.8953
2.06,8.775,18.1177
2.32,8.752,20.3278
2.58,8.728,22.5259
2.83,8.705,24.7117
3.09,8.681,26.8857
3.35,8.658,29.0473
3.61,8.634,31.1968
3.87,8.611,33.3342
4.12,8.588,35.4598
4.38,8.564,37.5730
4.64,8.250,38.3219
4.90,8.231,40.3584
5.16,8.221,42.4321
5.41,8.211,44.5008
5.67,8.204,46.5778
5.93,8.198,48.6634
6.19,8.193,50.7463
6.45,8.188,52.8265
6.70,8.182,54.9039
6.96,8.179,56.9905
7.22,8.176,59.0771
7.48,8.172,61.1621
7.74,8.169,63.2453
7.99,8.165,65.3268
8.25,8.162,67.4066
8.51,8.159,69.4846
8.77,8.156,71.5646
9.03,8.154,73.6519
9.29,8.152,75.7382
9.54,8.150,77.8235
9.80,8.148,79.9078
10.06,8.146,81.9911
10.32,8.144,84.0733
10.58,8.142,86.1546
10.83,8.140,88.2349
11.09,8.138,90.3141
11.35,8.136,92.3924
11.61,8.135,94.4697
11.87,8.133,96.5459
12.12,8.131,98.6213
12.38,8.129,100.7016
12.64,8.128,102.7811
12.90,8.126,104.8598
13.16,8.125,106.9378
13.41,8.123,109.0150
13.67,8.122,111.0915
13.93,8.120,113.1672
14.19,8.119,115.2422
14.45,8.118,117.3164
14.70,8.116,119.3899
14.96,8.115,121.4626
15.22,8.113,123.5345
15.48,8.112,125.6057
15.74,8.110,127.6762
15.99,8.109,129.7459
16.25,8.107,131.8148
16.51,8.106,133.8830
16.77,8.104,135.9504
17.03,8.103,138.0162
17.29,8.101,140.0811
17.54,8.100,142.1453
17.80,8.098,144.2087
18.06,8.097,146.2713
18.32,8.095,148.3332
18.58,8.094,150.3942
18.83,8.092,152.4545
19.09,8.091,154.5140
19.35,8.089,156.5727
19.61,8.088,158.6306
19.87,8.086,160.6877
20.12,8.085,162.7441
20.38,8.083,164.7997
20.64,8.082,166.8545
20.90,8.080,168.9085
21.16,8.079,170.9617
21.41,8.077,173.0100
21.67,8.075,175.0450
21.93,8.072,177.0788
22.19,8.070,179.1115
22.45,8.068,181.1430
22.70,8.066,183.1733
22.96,8.063,185.2024
23.22,8.061,187.2304
23.48,8.059,189.2571
23.74,8.056,191.2827
23.99,8.054,193.3072
24.25,8.052,195.3304
24.51,8.049,197.3390
24.77,8.044,199.3037
25.03,8.040,201.2661
25.28,8.035,203.2261
25.54,8.031,205.1838
25.80,8.026,207.1391
26.06,8.021,209.0796
26.32,8.012,210.9046
26.58,8.003,212.7249
26.83,7.993,214.5309
27.09,7.975,216.1022
27.35,7.953,217.5541
27.61,7.926,218.8828
27.87,7.901,220.2163
28.12,7.862,221.1646
28.38,7.822,222.0416
28.64,7.773,222.6599
28.90,7.726,223.3297
29.16,7.667,223.5834
29.41,7.620,224.1836
29.67,7.554,224.1811
29.93,7.490,224.2161
30.19,7.305,220.5766
30.45,7.206,219.4404
30.70,7.096,217.9315
30.96,6.976,216.0381
31.22,6.874,214.6582
31.48,6.708,211.2000
31.74,6.567,208.4636
31.99,6.430,205.7585
32.25,6.279,202.5564
32.51,6.095,198.1952
32.77,5.932,194.4282
33.03,5.727,189.1977
33.28,5.590,186.0989
33.54,5.410,181.4972
33.80,5.219,176.4414
34.06,5.031,171.3923
34.32,4.824,165.5724
34.58,4.547,157.2645
34.83,4.325,150.7043
35.09,4.067,142.7578
35.35,3.808,134.6537
35.61,3.547,126.3284
35.87,3.279,117.6351
36.12,3.011,108.7929
36.38,2.711,98.6641
36.64,2.410,88.3478
36.90,2.132,78.7101
37.16,1.828,67.9475
37.41,1.559,58.3535
37.67,1.230,46.3442
37.93,0.914,34.6985
38.19,0.620,23.7113
38.45,0.262,10.0879

Sample No.,12
Date & Time,'2021-12-30 13:48:50
Data Type,OPC
Voc (V),38.57
Isc (A),9.087
Pmax (W),207.0646
Vpm (V),30.22
Ipm (A),6.851
EFF (%),10.651
FF,0.590
Tc (degC),14.9
Irr (W/m2),75
Nms,1
Rs (Ohm),1.0081
V (V),I (A),P (W)
0.25,9.064,2.3308
0.51,9.040,4.6496
0.77,9.017,6.9564
1.02,8.994,9.2513
1.28,8.970,11.5342
1.54,8.947,13.8051
1.80,8.924,16.0641
2.05,8.901,18.3111
2.31,8.877,20.5461
2.57,8.854,22.7693
2.82,8.831,24.9804
3.08,8.808,27.1796
3.34,8.784,29.3667
3.60,8.761,31.5416
3.85,8.738,33.7050
4.11,8.714,35.8561
4.37,8.691,37.9926
4.62,8.406,38.9125
4.88,8.378,40.9365
5.14,8.361,43.0018
5.40,8.347,45.0797
5.65,8.338,47.1718
5.91,8.329,49.2659
6.17,8.321,51.3556
6.42,8.315,53.4582
6.68,8.310,55.5608
6.94,8.304,57.6607
7.20,8.299,59.7577
7.45,8.294,61.8546
7.71,8.291,63.9620
7.97,8.287,66.0678
8.22,8.284,68.1719
8.48,8.281,70.2742
8.74,8.278,72.3749
9.00,8.274,74.4739
9.25,8.271,76.5712
9.51,8.268,78.6692
9.77,8.265,80.7697
10.02,8.263,82.8689
10.28,8.260,84.9667
10.54,8.257,87.0631
10.80,8.255,89.1582
11.05,8.252,91.2520
11.31,8.250,93.3444
11.57,8.247,95.4355
11.82,8.244,97.5252
12.08,8.241,99.6113
12.34,8.238,101.6930
12.60,8.235,103.7732
12.85,8.232,105.8518
13.11,8.229,107.9288
13.37,8.226,110.0043
13.62,8.223,112.0782
13.88,8.220,114.1505
14.14,8.217,116.2213
14.40,8.213,118.2704
14.65,8.208,120.3080
14.91,8.202,122.3431
15.17,8.197,124.3755
15.42,8.192,126.4053
15.68,8.185,128.4034
15.94,8.175,130.3370
16.20,8.164,132.2650
16.45,8.148,134.1064
16.71,8.129,135.8838
16.97,8.097,137.4309
17.22,8.058,138.8384
17.48,8.008,140.0373
17.74,7.937,140.8413
18.00,7.861,141.5178
18.25,7.756,141.6068
18.51,7.630,141.2720
18.77,7.504,140.8783
19.02,7.350,139.8758
19.28,7.193,138.7284
19.54,7.105,138.8701
19.80,7.093,140.4559
20.05,7.081,142.0354
20.31,7.069,143.6086
20.57,7.058,145.2133
20.82,7.055,146.9642
21.08,7.052,148.7134
21.34,7.049,150.4611
21.60,7.046,152.2072
21.85,7.043,153.9517
22.11,7.040,155.6946
22.37,7.037,157.4359
22.62,7.034,159.1757
22.88,7.031,160.9138
23.14,7.028,162.6504
23.40,7.024,164.3854
23.65,7.021,166.1188
23.91,7.018,167.8506
24.17,7.015,169.5808
24.42,7.012,171.3094
24.68,7.009,173.0364
24.94,7.005,174.7488
25.20,7.002,176.4564
25.45,6.998,178.1620
25.71,6.994,179.8658
25.97,6.990,181.5676
26.22,6.987,183.2674
26.48,6.983,184.9654
26.74,6.979,186.6615
27.00,6.976,188.3556
27.25,6.972,190.0478
27.51,6.968,191.7381
27.77,6.964,193.4265
28.02,6.961,195.1129
28.28,6.957,196.7975
28.54,6.948,198.3194
28.80,6.938,199.8327
29.05,6.929,201.3411
29.31,6.919,202.8446
29.57,6.910,204.3432
29.82,6.892,205.6064
30.08,6.865,206.5595
30.34,6.815,206.8134
30.60,6.720,205.6431
30.85,6.611,204.0237
31.11,6.488,201.8746
31.37,6.387,200.3902
31.62,6.252,197.7739
31.88,6.098,194.4428
32.14,5.933,190.7240
32.40,5.735,185.8464
32.65,5.563,181.6909
32.91,5.418,178.3377
33.17,5.213,172.9544
33.42,5.036,168.3804
33.68,4.866,163.9456
33.94,4.720,160.2162
34.20,4.514,154.3916
34.45,4.310,148.5240
34.71,4.081,141.6955
34.97,3.797,132.8215
35.22,3.613,127.2899
35.48,3.326,118.0514
35.74,3.070,109.7618
36.00,2.817,101.4305
36.25,2.492,90.3852
36.51,2.276,83.1130
36.77,1.992,73.2681
37.02,1.707,63.2271
37.28,1.404,52.3842
37.54,1.133,42.5660
37.80,0.839,31.7193
38.05,0.580,22.0763
38.31,0.301,11.5589

Sample No.,13
Date & Time,'2021-12-30 13:49:25
Data Type,OPC
Voc (V),38.62
Isc (A),8.429
Pmax (W),197.5409
Vpm (V),30.60
Ipm (A),6.453
EFF (%),10.161
FF,0.606
Tc (degC),13.8
Irr (W/m2),73
Nms,1
Rs (Ohm),0.8208
V (V),I (A),P (W)
0.25,8.409,2.1651
0.51,8.388,4.3196
0.77,8.368,6.4635
1.02,8.347,8.5968
1.28,8.326,10.7195
1.54,8.306,12.8316
1.80,8.285,14.9331
2.05,8.265,17.0239
2.31,8.244,19.1043
2.57,8.224,21.1740
2.83,8.203,23.2331
3.08,8.182,25.2816
3.34,8.162,27.3195
3.60,8.141,29.3468
3.86,8.121,31.3635
4.11,8.100,33.3695
4.37,7.852,34.3701
4.63,7.829,36.2868
4.89,7.816,38.2365
5.14,7.804,40.1898
5.40,7.797,42.1573
5.66,7.789,44.1209
5.92,7.783,46.0894
6.17,7.778,48.0646
6.43,7.773,50.0373
6.69,7.769,52.0077
6.95,7.764,53.9756
7.20,7.761,55.9502
7.46,7.758,57.9259
7.72,7.755,59.9000
7.98,7.752,61.8726
8.23,7.749,63.8436
8.49,7.746,65.8131
8.75,7.742,67.7810
9.01,7.740,69.7494
9.26,7.737,71.7204
9.52,7.735,73.6903
9.78,7.733,75.6589
10.04,7.730,77.6263
10.29,7.728,79.5925
10.55,7.726,81.5574
10.81,7.723,83.5212
11.07,7.721,85.4838
11.32,7.719,87.4451
11.58,7.716,89.4031
11.84,7.713,91.3586
12.10,7.711,93.3128
12.35,7.708,95.2656
12.61,7.705,97.2170
12.87,7.703,99.1671
13.13,7.700,101.1159
13.38,7.698,103.0632
13.64,7.695,105.0092
13.90,7.691,106.9380
14.16,7.687,108.8611
14.41,7.683,110.7820
14.67,7.679,112.7009
14.93,7.675,114.6177
15.19,7.671,116.5325
15.44,7.664,118.4048
15.70,7.657,120.2706
15.96,7.651,122.1328
16.22,7.643,123.9732
16.47,7.633,125.7814
16.73,7.623,127.5846
16.99,7.606,129.2521
17.25,7.585,130.8438
17.50,7.553,132.2466
17.76,7.503,133.3081
18.02,7.447,134.2172
18.28,7.378,134.8831
18.53,7.282,135.0037
18.79,7.190,135.1432
19.05,7.075,134.8119
19.31,6.955,134.3157
19.56,6.796,132.9959
19.82,6.712,133.0762
20.08,6.683,134.2292
20.33,6.680,135.8769
20.59,6.676,137.5227
20.85,6.673,139.1667
21.11,6.669,140.8088
21.36,6.665,142.4491
21.62,6.662,144.0875
21.88,6.658,145.7241
22.14,6.655,147.3588
22.39,6.651,148.9916
22.65,6.647,150.6226
22.91,6.644,152.2518
23.17,6.640,153.8791
23.42,6.637,155.5221
23.68,6.635,157.1698
23.94,6.632,158.8162
24.20,6.630,160.4613
24.45,6.627,162.1050
24.71,6.624,163.7474
24.97,6.622,165.3885
25.23,6.619,167.0282
25.48,6.617,168.6666
25.74,6.614,170.3037
26.00,6.612,171.9395
26.26,6.609,173.5739
26.51,6.606,175.2069
26.77,6.604,176.8387
27.03,6.601,178.4691
27.29,6.599,180.0982
27.54,6.596,181.7259
27.80,6.592,183.3209
28.06,6.586,184.8441
28.32,6.580,186.3642
28.57,6.574,187.8810
28.83,6.567,189.3946
29.09,6.561,190.9050
29.35,6.555,192.4123
29.60,6.549,193.9163
29.86,6.531,195.0825
30.12,6.513,196.2029
30.38,6.487,197.0893
30.63,6.445,197.4815
30.89,6.374,196.9517
31.15,6.289,195.9436
31.41,6.212,195.1436
31.66,6.106,193.3855
31.92,6.003,191.6716
32.18,5.874,189.0551
32.44,5.742,186.2794
32.69,5.613,183.5550
32.95,5.465,180.1159
33.21,5.325,176.8680
33.47,5.129,171.6809
33.72,4.972,167.7113
33.98,4.774,162.2771
34.24,4.539,155.4557
34.50,4.329,149.3642
34.75,4.079,141.7961
35.01,3.810,133.4367
35.27,3.607,127.2485
35.53,3.338,118.6310
35.78,3.079,110.2101
36.04,2.839,102.3684
36.30,2.528,91.7743
36.56,2.291,83.7758
36.81,2.010,74.0341
37.07,1.719,63.7622
37.33,1.445,53.9531
37.59,1.166,43.8342
37.84,0.897,33.9594
38.10,0.552,21.0621
38.36,0.265,10.1963

Sample No.,14
Date & Time,'2021-12-30 13:50:02
Data Type,OPC
Voc (V),38.64
Isc (A),8.451
Pmax (W),198.5306
Vpm (V),30.68
Ipm (A),6.470
EFF (%),10.212
FF,0.607
Tc (degC),13.7
Irr (W/m2),738
Nms,1
Rs (Ohm),0.9450
V (V),I (A),P (W)
0.25,8.431,2.1721
0.51,8.411,4.3340
0.77,8.391,6.4855
1.03,8.371,8.6267
1.28,8.351,10.7576
1.54,8.331,12.8781
1.80,8.311,14.9882
2.06,8.291,17.0881
2.31,8.271,19.1776
2.57,8.251,21.2567
2.83,8.231,23.3257
3.09,8.211,25.3841
3.34,8.191,27.4323
3.60,8.170,29.4701
3.86,8.150,31.4976
4.12,8.130,33.5147
4.37,7.882,34.5213
4.63,7.860,36.4491
4.89,7.845,38.4041
5.15,7.836,40.3774
5.41,7.827,42.3458
5.66,7.821,44.3268
5.92,7.814,46.3046
6.18,7.808,48.2792
6.44,7.803,50.2592
6.69,7.799,52.2440
6.95,7.796,54.2269
7.21,7.792,56.2079
7.47,7.788,58.1868
7.72,7.784,60.1638
7.98,7.781,62.1464
8.24,7.779,64.1298
8.50,7.776,66.1118
8.75,7.773,68.0926
9.01,7.771,70.0720
9.27,7.768,72.0500
9.53,7.766,74.0267
9.78,7.763,76.0021
10.04,7.761,77.9763
10.30,7.758,79.9512
10.56,7.756,81.9249
10.82,7.753,83.8974
11.07,7.751,85.8686
11.33,7.749,87.8386
11.59,7.746,89.8074
11.85,7.744,91.7749
12.10,7.742,93.7413
12.36,7.739,95.7064
12.62,7.736,97.6667
12.88,7.733,99.6212
13.13,7.730,101.5740
13.39,7.727,103.5253
13.65,7.724,105.4751
13.91,7.721,107.4233
14.16,7.718,109.3700
14.42,7.715,111.3151
14.68,7.711,113.2385
14.94,7.706,115.1507
15.19,7.701,117.0604
15.45,7.696,118.9676
15.71,7.691,120.8722
15.97,7.684,122.7371
16.23,7.676,124.5940
16.48,7.669,126.4470
16.74,7.657,128.2237
17.00,7.643,129.9602
17.26,7.622,131.5611
17.51,7.586,132.8958
17.77,7.544,134.1092
18.03,7.484,134.9756
18.29,7.412,135.5811
18.54,7.329,135.9540
18.80,7.224,135.8593
19.06,7.128,135.8963
19.32,7.001,135.2708
19.57,6.849,134.1050
19.83,6.741,133.7312
20.09,6.733,135.3105
20.35,6.725,136.8858
20.60,6.718,138.4570
20.86,6.710,140.0243
21.12,6.702,141.5874
21.38,6.699,143.2453
21.64,6.696,144.9147
21.89,6.693,146.5827
22.15,6.691,148.2495
22.41,6.688,149.9148
22.67,6.686,151.5789
22.92,6.683,153.2416
23.18,6.680,154.9029
23.44,6.678,156.5629
23.70,6.675,158.2216
23.95,6.673,159.8789
24.21,6.670,161.5349
24.47,6.667,163.1895
24.73,6.665,164.8428
24.98,6.662,166.4947
25.24,6.660,168.1453
25.50,6.657,169.7946
25.76,6.654,171.4217
26.01,6.650,173.0447
26.27,6.647,174.6658
26.53,6.643,176.2852
26.79,6.640,177.9027
27.05,6.636,179.5184
27.30,6.633,181.1324
27.56,6.629,182.7445
27.82,6.625,184.3548
28.08,6.622,185.9633
28.33,6.618,187.5700
28.59,6.615,189.1749
28.85,6.611,190.7762
29.11,6.602,192.1946
29.36,6.592,193.6080
29.62,6.582,195.0164
29.88,6.572,196.4197
30.14,6.556,197.6276
30.39,6.525,198.3557
30.65,6.475,198.5281
30.91,6.416,198.3497
31.17,6.323,197.1191
31.42,6.228,195.7694
31.68,6.101,193.3438
31.94,5.987,191.2636
32.20,5.861,188.7652
32.46,5.716,185.5558
32.71,5.568,182.1910
32.97,5.425,178.9116
33.23,5.309,176.4583
33.49,5.126,171.6992
33.74,4.951,167.0888
34.00,4.706,160.0346
34.26,4.487,153.7674
34.52,4.257,146.9734
34.77,3.949,137.3756
35.03,3.738,130.9756
35.29,3.482,122.9093
35.55,3.305,117.5170
35.80,3.033,108.6374
36.06,2.755,99.3853
36.32,2.466,89.6021
36.58,2.215,81.0344
36.83,1.934,71.2615
37.09,1.674,62.1105
37.35,1.413,52.8015
37.61,1.124,42.3071
37.87,0.846,32.0474
38.12,0.545,20.8072
38.38,0.271,10.4205

Sample No.,15
Date & Time,'2021-12-30 13:50:33
Data Type,OPC
Voc (V),38.67
Isc (A),8.405
Pmax (W),196.8362
Vpm (V),30.58
Ipm (A),6.435
EFF (%),10.125
FF,0.605
Tc (degC),13.7
Irr (W/m2),71
Nms,1
Rs (Ohm),0.9456
V (V),I (A),P (W)
0.25,8.385,2.1618
0.51,8.364,4.3130
0.77,8.344,6.4536
1.03,8.323,8.5836
1.28,8.302,10.7030
1.54,8.282,12.8119
1.80,8.261,14.9101
2.06,8.241,16.9977
2.32,8.220,19.0747
2.57,8.200,21.1410
2.83,8.179,23.1969
3.09,8.159,25.2421
3.35,8.138,27.2769
3.60,8.117,29.3008
3.86,8.097,31.3141
4.12,8.076,33.3170
4.38,7.826,34.3000
4.64,7.807,36.2329
4.89,7.796,38.1899
5.15,7.785,40.1457
5.41,7.778,42.1141
5.67,7.771,44.0813
5.92,7.765,46.0450
6.18,7.760,48.0164
6.44,7.756,49.9904
6.70,7.751,51.9622
6.96,7.747,53.9319
7.21,7.743,55.8995
7.47,7.740,57.8691
7.73,7.737,59.8430
7.99,7.734,61.8154
8.25,7.731,63.7865
8.50,7.728,65.7560
8.76,7.726,67.7242
9.02,7.723,69.6909
9.28,7.720,71.6562
9.53,7.717,73.6222
9.79,7.715,75.5899
10.05,7.713,77.5565
10.31,7.711,79.5219
10.57,7.708,81.4861
10.82,7.706,83.4492
11.08,7.704,85.4111
11.34,7.702,87.3719
11.60,7.699,89.3315
11.85,7.697,91.2899
12.11,7.695,93.2449
12.37,7.692,95.1931
12.63,7.689,97.1399
12.89,7.686,99.0852
13.14,7.683,101.0290
13.40,7.680,102.9713
13.66,7.677,104.9122
13.92,7.675,106.8515
14.17,7.671,108.7842
14.43,7.667,110.6994
14.69,7.663,112.6124
14.95,7.658,114.5232
15.21,7.654,116.4317
15.46,7.650,118.3380
15.72,7.644,120.2158
15.98,7.637,122.0834
16.24,7.631,123.9477
16.50,7.624,125.8031
16.75,7.609,127.5159
17.01,7.591,129.1678
17.27,7.567,130.7181
17.53,7.535,132.1136
17.78,7.484,133.1373
18.04,7.416,133.8442
18.30,7.348,134.5119
18.56,7.257,134.7170
18.82,7.147,134.5117
19.07,7.048,134.4630
19.33,6.909,133.5990
19.59,6.749,132.2436
19.85,6.698,132.9828
20.10,6.684,134.4182
20.36,6.669,135.8462
20.62,6.662,137.4212
20.88,6.659,139.0733
21.14,6.656,140.7239
21.39,6.653,142.3728
21.65,6.650,144.0200
21.91,6.647,145.6657
22.17,6.643,147.3097
22.42,6.640,148.9522
22.68,6.637,150.5930
22.94,6.634,152.2321
23.20,6.631,153.8697
23.46,6.628,155.5056
23.71,6.625,157.1400
23.97,6.621,158.7726
24.23,6.619,160.4080
24.49,6.616,162.0444
24.75,6.613,163.6794
25.00,6.610,165.3128
25.26,6.607,166.9448
25.52,6.604,168.5753
25.78,6.601,170.2044
26.03,6.598,171.8319
26.29,6.596,173.4580
26.55,6.593,175.0826
26.81,6.590,176.7058
27.07,6.587,178.3274
27.32,6.584,179.9476
27.58,6.581,181.5663
27.84,6.578,183.1836
28.10,6.576,184.7993
28.35,6.569,186.3038
28.61,6.562,187.7962
28.87,6.555,189.2850
29.13,6.548,190.7702
29.39,6.541,192.2518
29.64,6.534,193.7298
29.90,6.520,195.0075
30.16,6.497,195.9819
30.42,6.464,196.6687
30.67,6.410,196.6782
30.93,6.343,196.2570
31.19,6.258,195.2380
31.45,6.151,193.4960
31.71,6.057,192.0971
31.96,5.918,189.2108
32.22,5.787,186.5226
32.48,5.676,184.3894
32.74,5.509,180.4078
33.00,5.382,177.6155
33.25,5.225,173.8027
33.51,5.075,170.1083
33.77,4.959,167.5019
34.03,4.760,161.9958
34.28,4.527,155.2347
34.54,4.310,148.9096
34.80,4.052,141.0597
35.06,3.842,134.7287
35.32,3.592,126.8743
35.57,3.328,118.4374
35.83,3.027,108.4797
36.09,2.808,101.3824
36.35,2.502,90.9826
36.60,2.262,82.8369
36.86,1.888,69.6233
37.12,1.715,63.6734
37.38,1.467,54.8733
37.64,1.192,44.8710
37.89,0.839,31.8073
38.15,0.579,22.1099
38.41,0.299,11.5138

Sample No.,16
Date & Time,'2021-12-30 13:52:55
Data Type,OPC
Voc (V),38.53
Isc (A),8.727
Pmax (W),170.0744
Vpm (V),31.64
Ipm (A),5.375
EFF (%),8.748
FF,0.505
Tc (degC),13.9
Irr (W/m2),734
Nms,1
Rs (Ohm),0.9034
V (V),I (A),P (W)
0.25,8.664,2.2257
0.51,8.602,4.4193
0.77,8.539,6.5807
1.02,8.476,8.7099
1.28,8.414,10.8069
1.54,8.351,12.8718
1.79,8.288,14.9042
2.05,8.226,16.9047
2.31,8.163,18.8726
2.56,8.100,20.8090
2.82,8.038,22.7123
3.08,7.975,24.5839
3.33,7.912,26.4235
3.59,7.850,28.2305
3.85,7.787,30.0059
4.10,7.558,31.0664
4.36,7.452,32.5449
4.62,7.432,34.3649
4.88,7.421,36.2229
5.13,7.411,38.0755
5.39,7.401,39.9258
5.65,7.393,41.7805
5.90,7.384,43.6309
6.16,7.376,45.4771
6.42,7.368,47.3190
6.67,7.350,49.0890
6.93,7.329,50.8362
7.19,7.268,52.2787
7.44,7.192,53.5823
7.70,6.979,53.7871
7.96,6.768,53.8985
8.21,6.728,55.3086
8.47,6.721,56.9788
8.73,6.714,58.6455
8.99,6.707,60.3086
9.24,6.701,61.9682
9.50,6.694,63.6243
9.76,6.687,65.2769
10.01,6.681,66.9346
10.27,6.678,68.6249
10.53,6.676,70.3138
10.78,6.673,72.0015
11.04,6.671,73.6879
11.30,6.668,75.3729
11.55,6.666,77.0567
11.81,6.663,78.7392
12.07,6.661,80.4203
12.32,6.658,82.1002
12.58,6.656,83.7788
12.84,6.653,85.4561
13.10,6.651,87.1320
13.35,6.648,88.8067
13.61,6.645,90.4801
13.87,6.643,92.1521
14.12,6.640,93.8229
14.38,6.638,95.4924
14.64,6.635,97.1605
14.89,6.633,98.8274
15.15,6.630,100.4828
15.41,6.624,102.1046
15.66,6.619,103.7237
15.92,6.614,105.3400
16.18,6.609,106.9537
16.43,6.603,108.5646
16.69,6.598,110.1728
16.95,6.593,111.7783
17.21,6.587,113.3811
17.46,6.582,114.9812
17.72,6.571,116.4837
17.98,6.555,117.8694
18.23,6.538,119.2466
18.49,6.508,120.3820
18.75,6.451,120.9828
19.00,6.377,121.2245
19.26,6.266,120.7322
19.52,6.134,119.7632
19.77,5.995,118.5926
20.03,5.829,116.7968
20.29,5.700,115.6857
20.54,5.664,116.4075
20.80,5.658,117.7411
21.06,5.652,119.0718
21.32,5.647,120.3995
21.57,5.641,121.7241
21.83,5.635,123.0458
22.09,5.629,124.3645
22.34,5.623,125.6801
22.60,5.617,126.9928
22.86,5.612,128.3025
23.11,5.606,129.6092
23.37,5.600,130.9128
23.63,5.595,132.2420
23.88,5.592,133.6046
24.14,5.589,134.9656
24.40,5.586,136.3250
24.65,5.583,137.6828
24.91,5.580,139.0390
25.17,5.577,140.3935
25.43,5.573,141.7465
25.68,5.570,143.0979
25.94,5.567,144.4476
26.20,5.564,145.7958
26.45,5.561,147.1423
26.71,5.558,148.4872
26.97,5.555,149.8305
27.22,5.551,151.1722
27.48,5.548,152.5123
27.74,5.545,153.8508
27.99,5.542,155.1877
28.25,5.539,156.5230
28.51,5.536,157.8566
28.76,5.533,159.1887
29.02,5.530,160.5191
29.28,5.526,161.8480
29.54,5.521,163.1083
29.79,5.510,164.2006
30.05,5.499,165.2873
30.31,5.488,166.3684
30.56,5.477,167.4439
30.82,5.466,168.5137
31.08,5.455,169.5779
31.33,5.427,170.0788
31.59,5.382,170.0771
31.85,5.313,169.2384
32.10,5.227,167.8649
32.36,5.133,166.1464
32.62,5.021,163.8267
32.87,4.919,161.7524
33.13,4.789,158.7147
33.39,4.595,153.4632
33.65,4.439,149.4057
33.90,4.271,144.8373
34.16,4.104,140.2165
34.42,3.915,134.7616
34.67,3.689,127.9416
34.93,3.489,121.9182
35.19,3.252,114.4460
35.44,3.025,107.2634
35.70,2.727,97.3708
35.96,2.550,91.7257
36.21,2.382,86.3030
36.47,2.119,77.3167
36.73,1.887,69.3268
36.98,1.650,61.0506
37.24,1.380,51.4144
37.50,1.124,42.1736
37.76,0.855,32.3130
38.01,0.558,21.2215
38.27,0.288,11.0315

Sample No.,17
Date & Time,'2021-12-30 13:53:55
Data Type,OPC
Voc (V),37.30
Isc (A),2.649
Pmax (W),22.4381
Vpm (V),10.24
Ipm (A),2.190
EFF (%),1.154
FF,0.226
Tc (degC),13.9
Irr (W/m2),735
Nms,1
Rs (Ohm),0.9034
V (V),I (A),P (W)
0.24,2.636,0.6558
0.49,2.623,1.3051
0.74,2.610,1.9479
0.99,2.597,2.5842
1.24,2.584,3.2139
1.49,2.571,3.8372
1.74,2.558,4.4540
1.98,2.502,4.9791
2.23,2.500,5.5981
2.48,2.499,6.2164
2.73,2.497,6.8340
2.98,2.493,7.4415
3.23,2.482,8.0278
3.48,2.468,8.5953
3.73,2.452,9.1506
3.97,2.438,9.7051
4.22,2.426,10.2599
4.47,2.417,10.8214
4.72,2.408,11.3804
4.97,2.399,11.9371
5.22,2.392,12.4962
5.47,2.385,13.0561
5.72,2.378,13.6091
5.96,2.371,14.1585
6.21,2.365,14.7087
6.46,2.359,15.2560
6.71,2.352,15.7998
6.96,2.346,16.3394
7.21,2.339,16.8750
7.46,2.332,17.4061
7.71,2.325,17.9318
7.95,2.317,18.4462
8.20,2.305,18.9230
8.45,2.300,19.4510
8.70,2.291,19.9482
8.95,2.281,20.4252
9.20,2.269,20.8889
9.45,2.256,21.3279
9.70,2.240,21.7327
9.94,2.224,22.1335
10.19,2.197,22.4109
10.44,2.043,21.3460
10.69,1.831,19.5852
10.94,1.548,16.9414
11.19,1.226,13.7272
11.44,0.928,10.6228
11.69,0.871,10.1917
11.93,0.857,10.2327
12.18,0.842,10.2712
12.43,0.837,10.4116
12.68,0.831,10.5493
12.93,0.826,10.6842
13.18,0.820,10.8163
13.43,0.814,10.9457
13.67,0.809,11.0723
13.92,0.803,11.1961
14.17,0.798,11.3255
14.42,0.793,11.4526
14.67,0.788,11.5772
14.92,0.783,11.6994
15.17,0.778,11.8191
15.42,0.774,11.9364
15.66,0.769,12.0511
15.91,0.764,12.1634
16.16,0.758,12.2677
16.41,0.753,12.3687
16.66,0.748,12.4671
16.91,0.742,12.5628
17.16,0.737,12.6559
17.41,0.732,12.7463
17.65,0.726,12.8340
17.90,0.721,12.9220
18.15,0.716,13.0165
18.40,0.712,13.1087
18.65,0.707,13.1986
18.90,0.702,13.2861
19.15,0.698,13.3713
19.40,0.693,13.4542
19.64,0.688,13.5348
19.89,0.684,13.6130
20.14,0.680,13.7053
20.39,0.678,13.8294
20.64,0.675,13.9524
20.89,0.673,14.0742
21.14,0.671,14.1950
21.39,0.669,14.3147
21.63,0.667,14.4333
21.88,0.664,14.5508
22.13,0.662,14.6672
22.38,0.660,14.7825
22.63,0.658,14.8966
22.88,0.655,15.0097
23.13,0.653,15.1217
23.38,0.651,15.2326
23.62,0.649,15.3424
23.87,0.647,15.4510
24.12,0.644,15.5586
24.37,0.642,15.6651
24.62,0.640,15.7705
24.87,0.638,15.8760
25.12,0.636,15.9963
25.37,0.635,16.1158
25.61,0.633,16.2346
25.86,0.632,16.3527
26.11,0.630,16.4699
26.36,0.629,16.5864
26.61,0.627,16.7022
26.86,0.626,16.8172
27.11,0.624,16.9314
27.35,0.622,17.0449
27.60,0.621,17.1576
27.85,0.619,17.2695
28.10,0.618,17.3807
28.35,0.616,17.4911
28.60,0.615,17.6008
28.85,0.613,17.7097
29.10,0.612,17.8178
29.34,0.610,17.9252
29.59,0.609,18.0318
29.84,0.607,18.1377
30.09,0.606,18.2427
30.34,0.604,18.3471
30.59,0.603,18.4506
30.84,0.601,18.5535
31.09,0.600,18.6555
31.33,0.598,18.7568
31.58,0.596,18.8573
31.83,0.595,18.9571
32.08,0.592,19.0230
32.33,0.589,19.0740
32.58,0.586,19.1236
32.83,0.583,19.1717
33.08,0.580,19.2182
33.32,0.577,19.2634
33.57,0.574,19.3070
33.82,0.572,19.3491
34.07,0.569,19.3898
34.32,0.566,19.4290
34.57,0.563,19.4667
34.82,0.560,19.5029
35.07,0.557,19.5376
35.31,0.554,19.5708
35.56,0.551,19.6026
35.81,0.537,19.2545
36.06,0.522,18.8351
36.31,0.506,18.4080
36.56,0.435,15.9370
36.81,0.321,11.8218
37.06,0.190,7.0594

Sample No.,18
Date & Time,'2021-12-30 13:52:55
Data Type,OPC
Voc (V),38.53
Isc (A),8.727
Pmax (W),170.0744
Vpm (V),31.64
Ipm (A),5.375
EFF (%),8.748
FF,0.505
Tc (degC),13.9
Irr (W/m2),734
Nms,1
Rs (Ohm),0.9034
V (V),I (A),P (W)
0.25,8.664,2.2257
0.51,8.602,4.4193
0.77,8.539,6.5807
1.02,8.476,8.7099
1.28,8.414,10.8069
1.54,8.351,12.8718
1.79,8.288,14.9042
2.05,8.226,16.9047
2.31,8.163,18.8726
2.56,8.100,20.8090
2.82,8.038,22.7123
3.08,7.975,24.5839
3.33,7.912,26.4235
3.59,7.850,28.2305
3.85,7.787,30.0059
4.10,7.558,31.0664
4.36,7.452,32.5449
4.62,7.432,34.3649
4.88,7.421,36.2229
5.13,7.411,38.0755
5.39,7.401,39.9258
5.65,7.393,41.7805
5.90,7.384,43.6309
6.16,7.376,45.4771
6.42,7.368,47.3190
6.67,7.350,49.0890
6.93,7.329,50.8362
7.19,7.268,52.2787
7.44,7.192,53.5823
7.70,6.979,53.7871
7.96,6.768,53.8985
8.21,6.728,55.3086
8.47,6.721,56.9788
8.73,6.714,58.6455
8.99,6.707,60.3086
9.24,6.701,61.9682
9.50,6.694,63.6243
9.76,6.687,65.2769
10.01,6.681,66.9346
10.27,6.678,68.6249
10.53,6.676,70.3138
10.78,6.673,72.0015
11.04,6.671,73.6879
11.30,6.668,75.3729
11.55,6.666,77.0567
11.81,6.663,78.7392
12.07,6.661,80.4203
12.32,6.658,82.1002
12.58,6.656,83.7788
12.84,6.653,85.4561
13.10,6.651,87.1320
13.35,6.648,88.8067
13.61,6.645,90.4801
13.87,6.643,92.1521
14.12,6.640,93.8229
14.38,6.638,95.4924
14.64,6.635,97.1605
14.89,6.633,98.8274
15.15,6.630,100.4828
15.41,6.624,102.1046
15.66,6.619,103.7237
15.92,6.614,105.3400
16.18,6.609,106.9537
16.43,6.603,108.5646
16.69,6.598,110.1728
16.95,6.593,111.7783
17.21,6.587,113.3811
17.46,6.582,114.9812
17.72,6.571,116.4837
17.98,6.555,117.8694
18.23,6.538,119.2466
18.49,6.508,120.3820
18.75,6.451,120.9828
19.00,6.377,121.2245
19.26,6.266,120.7322
19.52,6.134,119.7632
19.77,5.995,118.5926
20.03,5.829,116.7968
20.29,5.700,115.6857
20.54,5.664,116.4075
20.80,5.658,117.7411
21.06,5.652,119.0718
21.32,5.647,120.3995
21.57,5.641,121.7241
21.83,5.635,123.0458
22.09,5.629,124.3645
22.34,5.623,125.6801
22.60,5.617,126.9928
22.86,5.612,128.3025
23.11,5.606,129.6092
23.37,5.600,130.9128
23.63,5.595,132.2420
23.88,5.592,133.6046
24.14,5.589,134.9656
24.40,5.586,136.3250
24.65,5.583,137.6828
24.91,5.580,139.0390
25.17,5.577,140.3935
25.43,5.573,141.7465
25.68,5.570,143.0979
25.94,5.567,144.4476
26.20,5.564,145.7958
26.45,5.561,147.1423
26.71,5.558,148.4872
26.97,5.555,149.8305
27.22,5.551,151.1722
27.48,5.548,152.5123
27.74,5.545,153.8508
27.99,5.542,155.1877
28.25,5.539,156.5230
28.51,5.536,157.8566
28.76,5.533,159.1887
29.02,5.530,160.5191
29.28,5.526,161.8480
29.54,5.521,163.1083
29.79,5.510,164.2006
30.05,5.499,165.2873
30.31,5.488,166.3684
30.56,5.477,167.4439
30.82,5.466,168.5137
31.08,5.455,169.5779
31.33,5.427,170.0788
31.59,5.382,170.0771
31.85,5.313,169.2384
32.10,5.227,167.8649
32.36,5.133,166.1464
32.62,5.021,163.8267
32.87,4.919,161.7524
33.13,4.789,158.7147
33.39,4.595,153.4632
33.65,4.439,149.4057
33.90,4.271,144.8373
34.16,4.104,140.2165
34.42,3.915,134.7616
34.67,3.689,127.9416
34.93,3.489,121.9182
35.19,3.252,114.4460
35.44,3.025,107.2634
35.70,2.727,97.3708
35.96,2.550,91.7257
36.21,2.382,86.3030
36.47,2.119,77.3167
36.73,1.887,69.3268
36.98,1.650,61.0506
37.24,1.380,51.4144
37.50,1.124,42.1736
37.76,0.855,32.3130
38.01,0.558,21.2215
38.27,0.288,11.0315

Sample No.,19
Date & Time,'2021-12-30 13:53:55
Data Type,OPC
Voc (V),37.30
Isc (A),2.649
Pmax (W),22.4381
Vpm (V),10.24
Ipm (A),2.190
EFF (%),1.154
FF,0.226
Tc (degC),13.9
Irr (W/m2),735
Nms,1
Rs (Ohm),0.9034
V (V),I (A),P (W)
0.24,2.636,0.6558
0.49,2.623,1.3051
0.74,2.610,1.9479
0.99,2.597,2.5842
1.24,2.584,3.2139
1.49,2.571,3.8372
1.74,2.558,4.4540
1.98,2.502,4.9791
2.23,2.500,5.5981
2.48,2.499,6.2164
2.73,2.497,6.8340
2.98,2.493,7.4415
3.23,2.482,8.0278
3.48,2.468,8.5953
3.73,2.452,9.1506
3.97,2.438,9.7051
4.22,2.426,10.2599
4.47,2.417,10.8214
4.72,2.408,11.3804
4.97,2.399,11.9371
5.22,2.392,12.4962
5.47,2.385,13.0561
5.72,2.378,13.6091
5.96,2.371,14.1585
6.21,2.365,14.7087
6.46,2.359,15.2560
6.71,2.352,15.7998
6.96,2.346,16.3394
7.21,2.339,16.8750
7.46,2.332,17.4061
7.71,2.325,17.9318
7.95,2.317,18.4462
8.20,2.305,18.9230
8.45,2.300,19.4510
8.70,2.291,19.9482
8.95,2.281,20.4252
9.20,2.269,20.8889
9.45,2.256,21.3279
9.70,2.240,21.7327
9.94,2.224,22.1335
10.19,2.197,22.4109
10.44,2.043,21.3460
10.69,1.831,19.5852
10.94,1.548,16.9414
11.19,1.226,13.7272
11.44,0.928,10.6228
11.69,0.871,10.1917
11.93,0.857,10.2327
12.18,0.842,10.2712
12.43,0.837,10.4116
12.68,0.831,10.5493
12.93,0.826,10.6842
13.18,0.820,10.8163
13.43,0.814,10.9457
13.67,0.809,11.0723
13.92,0.803,11.1961
14.17,0.798,11.3255
14.42,0.793,11.4526
14.67,0.788,11.5772
14.92,0.783,11.6994
15.17,0.778,11.8191
15.42,0.774,11.9364
15.66,0.769,12.0511
15.91,0.764,12.1634
16.16,0.758,12.2677
16.41,0.753,12.3687
16.66,0.748,12.4671
16.91,0.742,12.5628
17.16,0.737,12.6559
17.41,0.732,12.7463
17.65,0.726,12.8340
17.90,0.721,12.9220
18.15,0.716,13.0165
18.40,0.712,13.1087
18.65,0.707,13.1986
18.90,0.702,13.2861
19.15,0.698,13.3713
19.40,0.693,13.4542
19.64,0.688,13.5348
19.89,0.684,13.6130
20.14,0.680,13.7053
20.39,0.678,13.8294
20.64,0.675,13.9524
20.89,0.673,14.0742
21.14,0.671,14.1950
21.39,0.669,14.3147
21.63,0.667,14.4333
21.88,0.664,14.5508
22.13,0.662,14.6672
22.38,0.660,14.7825
22.63,0.658,14.8966
22.88,0.655,15.0097
23.13,0.653,15.1217
23.38,0.651,15.2326
23.62,0.649,15.3424
23.87,0.647,15.4510
24.12,0.644,15.5586
24.37,0.642,15.6651
24.62,0.640,15.7705
24.87,0.638,15.8760
25.12,0.636,15.9963
25.37,0.635,16.1158
25.61,0.633,16.2346
25.86,0.632,16.3527
26.11,0.630,16.4699
26.36,0.629,16.5864
26.61,0.627,16.7022
26.86,0.626,16.8172
27.11,0.624,16.9314
27.35,0.622,17.0449
27.60,0.621,17.1576
27.85,0.619,17.2695
28.10,0.618,17.3807
28.35,0.616,17.4911
28.60,0.615,17.6008
28.85,0.613,17.7097
29.10,0.612,17.8178
29.34,0.610,17.9252
29.59,0.609,18.0318
29.84,0.607,18.1377
30.09,0.606,18.2427
30.34,0.604,18.3471
30.59,0.603,18.4506
30.84,0.601,18.5535
31.09,0.600,18.6555
31.33,0.598,18.7568
31.58,0.596,18.8573
31.83,0.595,18.9571
32.08,0.592,19.0230
32.33,0.589,19.0740
32.58,0.586,19.1236
32.83,0.583,19.1717
33.08,0.580,19.2182
33.32,0.577,19.2634
33.57,0.574,19.3070
33.82,0.572,19.3491
34.07,0.569,19.3898
34.32,0.566,19.4290
34.57,0.563,19.4667
34.82,0.560,19.5029
35.07,0.557,19.5376
35.31,0.554,19.5708
35.56,0.551,19.6026
35.81,0.537,19.2545
36.06,0.522,18.8351
36.31,0.506,18.4080
36.56,0.435,15.9370
36.81,0.321,11.8218
37.06,0.190,7.0594

Sample No.,20
Date & Time,'2021-12-30 13:54:59
Data Type,OPC
Voc (V),38.60
Isc (A),9.614
Pmax (W),170.5478
Vpm (V),31.12
Ipm (A),5.479
EFF (%),8.773
FF,0.459
Tc (degC),13.9
Irr (W/m2),738
Nms,1
Rs (Ohm),0.8603
V (V),I (A),P (W)
0.25,9.523,2.4508
0.51,9.432,4.8552
0.77,9.342,7.2128
1.02,9.251,9.5239
1.28,9.160,11.7882
1.54,9.070,14.0063
1.80,8.979,16.1775
2.05,8.889,18.3020
2.31,8.798,20.3799
2.57,8.708,22.4111
2.83,8.617,24.3962
3.08,8.527,26.3342
3.34,8.436,28.2256
3.60,8.345,30.0707
3.86,8.255,31.8689
4.11,8.164,33.6211
4.37,7.823,34.2302
4.63,7.790,36.0897
4.88,7.766,37.9751
5.14,7.752,39.9031
5.40,7.738,41.8240
5.66,7.724,43.7378
5.91,7.708,45.6302
6.17,7.691,47.5076
6.43,7.674,49.3760
6.69,7.647,51.1754
6.94,7.617,52.9335
7.20,7.542,54.3519
7.46,7.343,54.8106
7.72,7.204,55.6225
7.97,7.106,56.6984
8.23,6.799,55.9946
8.49,6.661,56.5791
8.75,6.621,57.9425
9.00,6.609,59.5359
9.26,6.605,61.2011
9.52,6.601,62.8643
9.77,6.597,64.5255
10.03,6.594,66.1847
10.29,6.590,67.8419
10.55,6.586,69.4971
10.80,6.582,71.1504
11.06,6.578,72.8016
11.32,6.574,74.4508
11.58,6.570,76.0981
11.83,6.566,77.7434
12.09,6.563,79.3866
12.35,6.559,81.0279
12.61,6.555,82.6672
12.86,6.551,84.3045
13.12,6.547,85.9398
13.38,6.543,87.5731
13.64,6.539,89.2039
13.89,6.535,90.8321
14.15,6.531,92.4582
14.41,6.527,94.0824
14.66,6.524,95.7044
14.92,6.520,97.3245
15.18,6.516,98.9425
15.44,6.512,100.5585
15.69,6.508,102.1724
15.95,6.504,103.7844
16.21,6.500,105.3942
16.47,6.496,107.0021
16.72,6.492,108.6079
16.98,6.488,110.2117
17.24,6.484,111.8134
17.50,6.480,113.4132
17.75,6.476,115.0108
18.01,6.472,116.6065
18.27,6.465,118.1339
18.52,6.442,119.3828
18.78,6.420,120.6202
19.04,6.397,121.8460
19.30,6.325,122.0880
19.55,6.173,120.7513
19.81,6.020,119.2979
20.07,5.867,117.7918
20.33,5.717,116.2472
20.58,5.659,116.5174
20.84,5.655,117.9053
21.10,5.652,119.2915
21.36,5.649,120.6761
21.61,5.646,122.0589
21.87,5.642,123.4400
22.13,5.639,124.8195
22.39,5.636,126.1973
22.64,5.632,127.5733
22.90,5.629,128.9477
23.16,5.626,130.3204
23.41,5.623,131.6914
23.67,5.619,133.0607
23.93,5.616,134.4283
24.19,5.613,135.7942
24.44,5.609,137.1585
24.70,5.606,138.5210
24.96,5.603,139.8818
25.22,5.600,141.2410
25.47,5.596,142.5984
25.73,5.593,143.9542
25.99,5.590,145.3083
26.25,5.586,146.6606
26.50,5.583,148.0113
26.76,5.580,149.3603
27.02,5.577,150.7076
27.28,5.573,152.0532
27.53,5.569,153.3651
27.79,5.562,154.6198
28.05,5.556,155.8712
28.30,5.550,157.1193
28.56,5.543,158.3642
28.82,5.537,159.6057
29.08,5.530,160.8438
29.33,5.524,162.0787
29.59,5.517,163.3103
29.85,5.511,164.5386
30.11,5.505,165.7636
30.36,5.498,166.9852
30.62,5.492,168.2036
30.88,5.485,169.4186
31.14,5.476,170.5326
31.39,5.423,170.2960
31.65,5.365,169.8513
31.91,5.292,168.9092
32.17,5.194,167.0961
32.42,5.079,164.7137
32.68,4.980,162.7896
32.94,4.884,160.8942
33.19,4.759,158.0227
33.45,4.631,154.9686
33.71,4.495,151.5560
33.97,4.352,147.8708
34.22,4.175,142.9158
34.48,3.986,137.4779
34.74,3.766,130.8489
35.00,3.590,125.6561
35.25,3.336,117.6373
35.51,3.095,109.9337
35.77,2.872,102.7535
36.03,2.640,95.1447
36.28,2.410,87.4681
36.54,2.146,78.4527
36.80,1.879,69.1680
37.05,1.637,60.7007
37.31,1.389,51.8431
37.57,1.155,43.4106
37.83,0.818,30.9560
38.08,0.548,20.8741
38.34,0.268,10.3045

Sample No.,21
Date & Time,'2021-12-30 13:55:33
Data Type,OPC
Voc (V),38.60
Isc (A),9.614
Pmax (W),170.5478
Vpm (V),31.12
Ipm (A),5.479
EFF (%),8.773
FF,0.459
Tc (degC),13.9
Irr (W/m2),738
Nms,1
Rs (Ohm),0.8603
V (V),I (A),P (W)
0.25,9.523,2.4508
0.51,9.432,4.8552
0.77,9.342,7.2128
1.02,9.251,9.5239
1.28,9.160,11.7882
1.54,9.070,14.0063
1.80,8.979,16.1775
2.05,8.889,18.3020
2.31,8.798,20.3799
2.57,8.708,22.4111
2.83,8.617,24.3962
3.08,8.527,26.3342
3.34,8.436,28.2256
3.60,8.345,30.0707
3.86,8.255,31.8689
4.11,8.164,33.6211
4.37,7.823,34.2302
4.63,7.790,36.0897
4.88,7.766,37.9751
5.14,7.752,39.9031
5.40,7.738,41.8240
5.66,7.724,43.7378
5.91,7.708,45.6302
6.17,7.691,47.5076
6.43,7.674,49.3760
6.69,7.647,51.1754
6.94,7.617,52.9335
7.20,7.542,54.3519
7.46,7.343,54.8106
7.72,7.204,55.6225
7.97,7.106,56.6984
8.23,6.799,55.9946
8.49,6.661,56.5791
8.75,6.621,57.9425
9.00,6.609,59.5359
9.26,6.605,61.2011
9.52,6.601,62.8643
9.77,6.597,64.5255
10.03,6.594,66.1847
10.29,6.590,67.8419
10.55,6.586,69.4971
10.80,6.582,71.1504
11.06,6.578,72.8016
11.32,6.574,74.4508
11.58,6.570,76.0981
11.83,6.566,77.7434
12.09,6.563,79.3866
12.35,6.559,81.0279
12.61,6.555,82.6672
12.86,6.551,84.3045
13.12,6.547,85.9398
13.38,6.543,87.5731
13.64,6.539,89.2039
13.89,6.535,90.8321
14.15,6.531,92.4582
14.41,6.527,94.0824
14.66,6.524,95.7044
14.92,6.520,97.3245
15.18,6.516,98.9425
15.44,6.512,100.5585
15.69,6.508,102.1724
15.95,6.504,103.7844
16.21,6.500,105.3942
16.47,6.496,107.0021
16.72,6.492,108.6079
16.98,6.488,110.2117
17.24,6.484,111.8134
17.50,6.480,113.4132
17.75,6.476,115.0108
18.01,6.472,116.6065
18.27,6.465,118.1339
18.52,6.442,119.3828
18.78,6.420,120.6202
19.04,6.397,121.8460
19.30,6.325,122.0880
19.55,6.173,120.7513
19.81,6.020,119.2979
20.07,5.867,117.7918
20.33,5.717,116.2472
20.58,5.659,116.5174
20.84,5.655,117.9053
21.10,5.652,119.2915
21.36,5.649,120.6761
21.61,5.646,122.0589
21.87,5.642,123.4400
22.13,5.639,124.8195
22.39,5.636,126.1973
22.64,5.632,127.5733
22.90,5.629,128.9477
23.16,5.626,130.3204
23.41,5.623,131.6914
23.67,5.619,133.0607
23.93,5.616,134.4283
24.19,5.613,135.7942
24.44,5.609,137.1585
24.70,5.606,138.5210
24.96,5.603,139.8818
25.22,5.600,141.2410
25.47,5.596,142.5984
25.73,5.593,143.9542
25.99,5.590,145.3083
26.25,5.586,146.6606
26.50,5.583,148.0113
26.76,5.580,149.3603
27.02,5.577,150.7076
27.28,5.573,152.0532
27.53,5.569,153.3651
27.79,5.562,154.6198
28.05,5.556,155.8712
28.30,5.550,157.1193
28.56,5.543,158.3642
28.82,5.537,159.6057
29.08,5.530,160.8438
29.33,5.524,162.0787
29.59,5.517,163.3103
29.85,5.511,164.5386
30.11,5.505,165.7636
30.36,5.498,166.9852
30.62,5.492,168.2036
30.88,5.485,169.4186
31.14,5.476,170.5326
31.39,5.423,170.2960
31.65,5.365,169.8513
31.91,5.292,168.9092
32.17,5.194,167.0961
32.42,5.079,164.7137
32.68,4.980,162.7896
32.94,4.884,160.8942
33.19,4.759,158.0227
33.45,4.631,154.9686
33.71,4.495,151.5560
33.97,4.352,147.8708
34.22,4.175,142.9158
34.48,3.986,137.4779
34.74,3.766,130.8489
35.00,3.590,125.6561
35.25,3.336,117.6373
35.51,3.095,109.9337
35.77,2.872,102.7535
36.03,2.640,95.1447
36.28,2.410,87.4681
36.54,2.146,78.4527
36.80,1.879,69.1680
37.05,1.637,60.7007
37.31,1.389,51.8431
37.57,1.155,43.4106
37.83,0.818,30.9560
38.08,0.548,20.8741
38.34,0.268,10.3045

Sample No.,22
Date & Time,'2021-12-30 13:55:38
Data Type,OPC
Voc (V),38.58
Isc (A),9.467
Pmax (W),169.8269
Vpm (V),31.47
Ipm (A),5.396
EFF (%),8.735
FF,0.464
Tc (degC),14.0
Irr (W/m2),77
Nms,1
Rs (Ohm),5.4818
V (V),I (A),P (W)
0.25,9.378,2.4121
0.51,9.289,4.7788
0.77,9.200,7.0996
1.02,9.112,9.3748
1.28,9.023,11.6043
1.54,8.934,13.7885
1.80,8.845,15.9266
2.05,8.757,18.0193
2.31,8.668,20.0657
2.57,8.579,22.0670
2.82,8.490,24.0230
3.08,8.402,25.9329
3.34,8.313,27.7975
3.60,8.224,29.6157
3.85,8.135,31.3881
4.11,8.047,33.1163
4.37,7.694,33.6438
4.62,7.671,35.5170
4.88,7.649,37.3814
5.14,7.638,39.2944
5.40,7.628,41.2020
5.65,7.617,43.1042
5.91,7.606,45.0009
6.17,7.594,46.8779
6.43,7.579,48.7396
6.68,7.565,50.5941
6.94,7.543,52.3875
7.20,7.498,54.0000
7.45,7.402,55.2175
7.71,7.264,56.0538
7.97,7.017,55.9506
8.23,6.846,56.3506
8.48,6.574,55.8043
8.74,6.538,57.1793
9.00,6.510,58.6121
9.25,6.507,60.2531
9.51,6.503,61.8922
9.77,6.499,63.5294
10.03,6.496,65.1648
10.28,6.492,66.7983
10.54,6.489,68.4299
10.80,6.485,70.0596
11.05,6.481,71.6875
11.31,6.478,73.3135
11.57,6.474,74.9377
11.83,6.470,76.5599
12.08,6.467,78.1803
12.34,6.463,79.7989
12.60,6.459,81.4155
12.86,6.456,83.0303
13.11,6.452,84.6432
13.37,6.449,86.2543
13.63,6.445,87.8634
13.88,6.441,89.4703
14.14,6.437,91.0691
14.40,6.433,92.6657
14.66,6.429,94.2602
14.91,6.425,95.8525
15.17,6.421,97.4428
15.43,6.417,99.0310
15.68,6.412,100.6170
15.94,6.408,102.2009
16.20,6.404,103.7827
16.46,6.400,105.3624
16.71,6.396,106.9400
16.97,6.392,108.5155
17.23,6.388,110.0889
17.49,6.384,111.6601
17.74,6.380,113.2292
18.00,6.375,114.7962
18.26,6.371,116.3611
18.51,6.354,117.6846
18.77,6.333,118.9234
19.03,6.312,120.1514
19.29,6.274,121.0375
19.54,6.191,121.0311
19.80,6.084,120.4954
20.06,5.927,118.9155
20.31,5.856,119.0016
20.57,5.646,116.1754
20.83,5.574,116.1427
21.09,5.571,117.5168
21.34,5.569,118.8895
21.60,5.566,120.2608
21.86,5.563,121.6305
22.11,5.560,122.9989
22.37,5.557,124.3657
22.63,5.554,125.7311
22.89,5.552,127.0951
23.14,5.549,128.4576
23.40,5.546,129.8186
23.66,5.543,131.1782
23.92,5.540,132.5363
24.17,5.537,133.8930
24.43,5.535,135.2482
24.69,5.532,136.6020
24.94,5.529,137.9543
25.20,5.526,139.3051
25.46,5.523,140.6545
25.72,5.520,142.0024
25.97,5.518,143.3489
26.23,5.515,144.6939
26.49,5.512,146.0375
26.74,5.509,147.3796
27.00,5.506,148.7202
27.26,5.503,150.0594
27.52,5.501,151.3972
27.77,5.498,152.7334
28.03,5.495,154.0683
28.29,5.492,155.4016
28.54,5.489,156.7335
28.80,5.486,158.0640
29.06,5.478,159.2360
29.32,5.469,160.3868
29.57,5.461,161.5331
29.83,5.452,162.6749
30.09,5.443,163.8121
30.35,5.434,164.9448
30.60,5.425,166.0730
30.86,5.417,167.1966
31.12,5.408,168.3157
31.37,5.399,169.4303
31.63,5.364,169.7111
31.89,5.314,169.5102
32.15,5.244,168.6052
32.40,5.148,166.8430
32.66,5.058,165.2524
32.92,4.959,163.2676
33.17,4.814,159.7536
33.43,4.648,155.4265
33.69,4.497,151.5279
33.95,4.302,146.0586
34.20,4.112,140.6762
34.46,3.933,135.5878
34.72,3.741,129.9105
34.98,3.518,123.0603
35.23,3.298,116.2354
35.49,3.058,108.5647
35.75,2.867,102.5215
36.00,2.638,95.0139
36.26,2.387,86.5802
36.52,2.170,79.2705
36.78,1.898,69.8244
37.03,1.627,60.2657
37.29,1.388,51.7865
37.55,1.117,41.9817
37.80,0.842,31.8626
38.06,0.574,21.8712
38.32,0.256,9.8478

Sample No.,23
Date & Time,'2021-12-30 13:57:15
Data Type,OPC
Voc (V),38.54
Isc (A),9.009
Pmax (W),169.1104
Vpm (V),31.38
Ipm (A),5.388
EFF (%),8.699
FF,0.486
Tc (degC),14.1
Irr (W/m2),729
Nms,1
Rs (Ohm),0.8652
V (V),I (A),P (W)
0.25,8.943,2.2983
0.51,8.877,4.5629
0.77,8.812,6.7936
1.02,8.746,8.9905
1.28,8.680,11.1534
1.54,8.614,13.2825
1.79,8.548,15.3781
2.05,8.482,17.4394
2.31,8.417,19.4673
2.56,8.351,21.4607
2.82,8.285,23.4208
3.08,8.219,25.3474
3.34,8.153,27.2395
3.59,8.087,29.0978
3.85,8.021,30.9222
4.11,7.888,32.4368
4.36,7.652,33.4305
4.62,7.632,35.3074
4.88,7.619,37.2033
5.13,7.606,39.0922
5.39,7.595,40.9890
5.65,7.584,42.8809
5.91,7.574,44.7673
6.16,7.561,46.6373
6.42,7.546,48.4831
6.68,7.531,50.3212
6.93,7.504,52.0669
7.19,7.450,53.6107
7.45,7.345,54.7411
7.70,7.273,56.0710
7.96,7.008,55.8317
8.22,6.728,55.3337
8.48,6.534,55.4134
8.73,6.503,56.8230
8.99,6.496,58.4286
9.25,6.488,60.0305
9.50,6.481,61.6286
9.76,6.474,63.2229
10.02,6.466,64.8135
10.27,6.459,66.4004
10.53,6.452,67.9835
10.79,6.447,69.5922
11.05,6.445,71.2182
11.30,6.442,72.8428
11.56,6.439,74.4659
11.82,6.436,76.0876
12.07,6.433,77.7079
12.33,6.431,79.3267
12.59,6.428,80.9441
12.84,6.425,82.5600
13.10,6.422,84.1746
13.36,6.419,85.7876
13.61,6.417,87.3992
13.87,6.414,89.0094
14.13,6.411,90.6182
14.39,6.408,92.2255
14.64,6.405,93.8314
14.90,6.403,95.4358
15.16,6.400,97.0388
15.41,6.397,98.6403
15.67,6.394,100.2405
15.93,6.391,101.8391
16.18,6.389,103.4364
16.44,6.383,104.9888
16.70,6.377,106.5235
16.96,6.370,108.0549
17.21,6.364,109.5830
17.47,6.358,111.1079
17.73,6.351,112.6296
17.98,6.345,114.1480
18.24,6.339,115.6631
18.50,6.332,117.1750
18.75,6.326,118.6836
19.01,6.296,119.7282
19.27,6.262,120.6919
19.53,6.167,120.4560
19.78,6.063,119.9878
20.04,5.929,118.8585
20.30,5.789,117.5251
20.55,5.632,115.8006
20.81,5.555,115.6417
21.07,5.546,116.8814
21.32,5.544,118.2500
21.58,5.541,119.6172
21.84,5.538,120.9830
22.10,5.536,122.3475
22.35,5.533,123.7106
22.61,5.530,125.0723
22.87,5.528,126.4326
23.12,5.525,127.7916
23.38,5.522,129.1492
23.64,5.520,130.5055
23.89,5.517,131.8604
24.15,5.514,133.2139
24.41,5.512,134.5660
24.67,5.509,135.9168
24.92,5.506,137.2662
25.18,5.504,138.6142
25.44,5.501,139.9609
25.69,5.498,141.3062
25.95,5.496,142.6501
26.21,5.493,143.9927
26.46,5.490,145.3339
26.72,5.488,146.6737
26.98,5.485,148.0122
27.23,5.482,149.3492
27.49,5.480,150.6850
27.75,5.477,152.0193
28.01,5.474,153.3523
28.26,5.472,154.6839
28.52,5.469,156.0056
28.78,5.461,157.2027
29.03,5.454,158.3960
29.29,5.447,159.5857
29.55,5.440,160.7716
29.80,5.432,161.9538
30.06,5.425,163.1322
30.32,5.418,164.3070
30.58,5.411,165.4780
30.83,5.403,166.6453
31.09,5.396,167.8089
31.35,5.389,168.9687
31.60,5.346,168.9797
31.86,5.292,168.6536
32.12,5.216,167.5818
32.37,5.150,166.7645
32.63,5.053,164.9179
32.89,4.963,163.2733
33.15,4.823,159.9160
33.40,4.617,154.2654
33.66,4.478,150.7674
33.92,4.300,145.8917
34.17,4.136,141.3651
34.43,3.886,133.8484
34.69,3.695,128.1951
34.94,3.508,122.6043
35.20,3.307,116.4607
35.46,3.065,108.7189
35.72,2.833,101.2290
35.97,2.617,94.1580
36.23,2.388,86.5398
36.49,2.174,79.3400
36.74,1.904,69.9699
37.00,1.634,60.4739
37.26,1.399,52.1300
37.51,1.156,43.4026
37.77,0.868,32.7991
38.03,0.584,22.2271
38.29,0.298,11.4231

Sample No.,24
Date & Time,'2021-12-30 14:02:28
Data Type,OPC
Voc (V),38.37
Isc (A),8.602
Pmax (W),132.9627
Vpm (V),32.55
Ipm (A),4.084
EFF (%),6.839
FF,0.402
Tc (degC),14.8
Irr (W/m2),706
Nms,1
Rs (Ohm),0.9331
V (V),I (A),P (W)
0.25,8.538,2.1843
0.51,8.475,4.3363
0.76,8.412,6.4560
1.02,8.348,8.5432
1.27,8.285,10.5981
1.53,8.222,12.6209
1.79,8.159,14.6109
2.04,8.095,16.5688
2.30,8.032,18.4944
2.55,7.969,20.3874
2.81,7.906,22.2484
3.06,7.843,24.0771
3.32,7.779,25.8728
3.58,7.716,27.6370
3.83,7.653,29.3683
4.09,7.615,31.1710
4.34,7.358,32.0015
4.60,7.338,33.7925
4.86,7.325,35.6078
5.11,7.316,37.4365
5.37,7.308,39.2606
5.62,7.299,41.0801
5.88,7.286,42.8714
6.13,7.271,44.6471
6.39,7.255,46.3993
6.65,7.231,48.0966
6.90,7.192,49.6822
7.16,7.122,51.0202
7.41,7.056,52.3529
7.67,6.702,51.4408
7.93,6.508,51.6147
8.18,6.337,51.8781
8.44,6.315,53.3120
8.69,6.303,54.8238
8.95,6.291,56.3295
9.20,6.279,57.8291
9.46,6.270,59.3504
9.72,6.267,60.9296
9.97,6.265,62.5074
10.23,6.262,64.0840
10.48,6.260,65.6592
10.74,6.257,67.2331
11.00,6.254,68.8057
11.25,6.252,70.3770
11.51,6.249,71.9470
11.76,6.247,73.5157
12.02,6.244,75.0831
12.27,6.242,76.6491
12.53,6.239,78.2139
12.79,6.236,79.7773
13.04,6.234,81.3394
13.30,6.231,82.9002
13.55,6.229,84.4597
13.81,6.226,86.0179
14.07,6.224,87.5748
14.32,6.221,89.1304
14.58,6.219,90.6846
14.83,6.216,92.2376
15.09,6.213,93.7786
15.34,6.208,95.3001
15.60,6.204,96.8193
15.86,6.199,98.3362
16.11,6.195,99.8509
16.37,6.191,101.3633
16.62,6.186,102.8735
16.88,6.182,104.3813
17.13,6.177,105.8869
17.39,6.173,107.3903
17.65,6.168,108.8914
17.90,6.164,110.3902
18.16,6.160,111.8867
18.41,6.147,113.2392
18.67,6.126,114.4040
18.93,6.104,115.5576
19.18,6.059,116.2561
19.44,5.963,115.9486
19.69,5.878,115.7911
19.95,5.787,115.4808
20.20,5.657,114.3390
20.46,5.490,112.3709
20.72,5.307,109.9761
20.97,5.090,106.7935
21.23,4.892,103.8818
21.48,4.625,99.3932
21.74,4.401,95.7084
22.00,4.326,95.1907
22.25,4.278,95.2344
22.51,4.274,96.2304
22.76,4.270,97.2241
23.02,4.265,98.2155
23.27,4.261,99.2047
23.53,4.257,100.1917
23.79,4.252,101.1764
24.04,4.248,102.1589
24.30,4.243,103.1391
24.55,4.239,104.1171
24.81,4.235,105.0929
25.07,4.230,106.0664
25.32,4.226,107.0376
25.58,4.221,108.0066
25.83,4.217,108.9734
26.09,4.213,109.9379
26.34,4.208,110.9002
26.60,4.204,111.8603
26.86,4.200,112.8181
27.11,4.195,113.7736
27.37,4.191,114.7269
27.62,4.186,115.6780
27.88,4.182,116.6244
28.14,4.177,117.5434
28.39,4.171,118.4596
28.65,4.166,119.3730
28.90,4.160,120.2837
29.16,4.155,121.1917
29.41,4.150,122.0969
29.67,4.144,122.9994
29.93,4.139,123.8991
30.18,4.134,124.7961
30.44,4.128,125.6903
30.69,4.123,126.5818
30.95,4.118,127.4706
31.21,4.112,128.3566
31.46,4.107,129.2398
31.72,4.101,130.1203
31.97,4.096,130.9981
32.23,4.091,131.8731
32.48,4.085,132.7454
32.74,4.053,132.7199
33.00,4.011,132.3777
33.25,3.944,131.1684
33.51,3.834,128.4959
33.76,3.725,125.8165
34.02,3.607,122.7473
34.27,3.461,118.6689
34.53,3.323,114.7728
34.79,3.164,110.1007
35.04,2.968,104.0549
35.30,2.777,98.0595
35.55,2.596,92.3366
35.81,2.394,85.7622
36.07,2.159,77.9109
36.32,1.914,69.5359
36.58,1.703,62.3033
36.83,1.439,53.0453
37.09,1.218,45.2076
37.34,0.949,35.4685
37.60,0.744,28.0110
37.86,0.472,17.8816
38.11,0.242,9.2601

Sample No.,25
Date & Time,'2021-12-30 14:02:59
Data Type,OPC
Voc (V),38.39
Isc (A),8.336
Pmax (W),131.4486
Vpm (V),33.20
Ipm (A),3.958
EFF (%),6.761
FF,0.410
Tc (degC),14.8
Irr (W/m2),67
Nms,1
Rs (Ohm),0.9520
V (V),I (A),P (W)
0.25,8.284,2.1207
0.51,8.232,4.2147
0.76,8.179,6.2819
1.02,8.127,8.3223
1.27,8.075,10.3359
1.53,8.022,12.3227
1.79,7.970,14.2827
2.04,7.918,16.2157
2.30,7.865,18.1223
2.55,7.813,20.0018
2.81,7.761,21.8546
3.07,7.708,23.6806
3.32,7.656,25.4799
3.58,7.604,27.2523
3.83,7.551,28.9977
4.09,7.408,30.3447
4.35,7.277,31.6723
4.60,7.259,33.4510
4.86,7.248,35.2543
5.11,7.236,37.0518
5.37,7.226,38.8476
5.63,7.216,40.6395
5.88,7.205,42.4262
6.14,7.192,44.1898
6.39,7.178,45.9391
6.65,7.158,47.6434
6.91,7.130,49.2821
7.16,7.084,50.7772
7.42,7.005,52.0070
7.67,6.885,52.8820
7.93,6.712,53.2711
8.19,6.552,53.6763
8.44,6.325,53.4401
8.70,6.215,54.1001
8.95,6.181,55.3875
9.21,6.177,56.9335
9.47,6.173,58.4775
9.72,6.169,60.0194
9.98,6.165,61.5593
10.23,6.161,63.0972
10.49,6.158,64.6330
10.75,6.154,66.1668
11.00,6.150,67.6986
11.26,6.146,69.2284
11.51,6.142,70.7561
11.77,6.138,72.2818
12.03,6.134,73.8055
12.28,6.130,75.3314
12.54,6.128,76.8686
12.79,6.125,78.4044
13.05,6.122,79.9389
13.31,6.120,81.4721
13.56,6.117,83.0040
13.82,6.115,84.5346
14.07,6.112,86.0639
14.33,6.110,87.5918
14.59,6.107,89.1184
14.84,6.104,90.6437
15.10,6.102,92.1677
15.35,6.099,93.6904
15.61,6.097,95.2118
15.87,6.094,96.7318
16.12,6.092,98.2505
16.38,6.089,99.7680
16.63,6.086,101.2840
16.89,6.084,102.7988
17.15,6.081,104.3123
17.40,6.079,105.8244
17.66,6.073,107.2790
17.91,6.064,108.6695
18.17,6.055,110.0554
18.43,6.045,111.4365
18.68,6.036,112.8129
18.94,6.027,114.1846
19.19,6.004,115.2873
19.45,5.969,116.1475
19.71,5.892,116.1419
19.96,5.801,115.8365
20.22,5.673,114.7464
20.47,5.547,113.6059
20.73,5.348,110.8975
20.99,5.134,107.7761
21.24,4.958,105.3553
21.50,4.731,101.7519
21.75,4.473,97.3301
22.01,4.296,94.5784
22.27,4.235,94.3304
22.52,4.228,95.2576
22.78,4.221,96.1812
23.03,4.214,97.1012
23.29,4.207,98.0177
23.55,4.200,98.9306
23.80,4.193,99.8399
24.06,4.186,100.7457
24.31,4.179,101.6479
24.57,4.172,102.5465
24.83,4.165,103.4416
25.08,4.158,104.3331
25.34,4.151,105.2210
25.59,4.146,106.1390
25.85,4.142,107.1097
26.11,4.139,108.0785
26.36,4.135,109.0456
26.62,4.132,110.0108
26.87,4.128,110.9743
27.13,4.125,111.9360
27.39,4.121,112.8958
27.64,4.118,113.8539
27.90,4.114,114.8102
28.15,4.111,115.7647
28.41,4.107,116.7173
28.67,4.104,117.6682
28.92,4.100,118.6173
29.18,4.097,119.5646
29.43,4.093,120.5101
29.69,4.090,121.4538
29.95,4.086,122.3957
30.20,4.082,123.3358
30.46,4.079,124.2741
30.71,4.075,125.2106
30.97,4.072,126.1453
31.23,4.068,127.0782
31.48,4.065,128.0094
31.74,4.061,128.9387
31.99,4.058,129.8662
32.25,4.054,130.7919
32.51,4.033,131.1365
32.76,4.005,131.2637
33.02,3.978,131.3768
33.27,3.937,131.0212
33.53,3.862,129.5206
33.79,3.768,127.3353
34.04,3.659,124.6035
34.30,3.517,120.6739
34.55,3.367,116.3808
34.81,3.211,111.7923
35.07,3.046,106.8520
35.32,2.825,99.8239
35.58,2.637,93.8447
35.83,2.432,87.1950
36.09,2.206,79.6394
36.35,1.991,72.3962
36.60,1.813,66.3938
36.86,1.597,58.9054
37.11,1.332,49.4715
37.37,1.076,40.2501
37.63,0.810,30.4916
37.88,0.561,21.2771
38.14,0.279,10.6754

Sample No.,26
Date & Time,'2021-12-30 14:03:44
Data Type,OPC
Voc (V),38.45
Isc (A),8.402
Pmax (W),131.7199
Vpm (V),33.01
Ipm (A),3.989
EFF (%),6.775
FF,0.407
Tc (degC),14.4
Irr (W/m2),690
Nms,1
Rs (Ohm),0.9399
V (V),I (A),P (W)
0.25,8.348,2.1400
0.51,8.294,4.2524
0.76,8.241,6.3374
1.02,8.187,8.3949
1.28,8.133,10.4248
1.53,8.080,12.4271
1.79,8.026,14.4020
2.05,7.972,16.3496
2.30,7.919,18.2697
2.56,7.865,20.1618
2.81,7.811,22.0267
3.07,7.758,23.8640
3.33,7.704,25.6744
3.58,7.650,27.4567
3.84,7.597,29.2116
4.10,7.318,30.0137
4.35,7.297,31.7996
4.61,7.263,33.5129
4.87,7.249,35.3082
5.12,7.239,37.1120
5.38,7.228,38.9104
5.63,7.217,40.7007
5.89,7.206,42.4848
6.15,7.194,44.2633
6.40,7.178,46.0042
6.66,7.162,47.7358
6.92,7.131,49.3560
7.17,7.062,50.6914
7.43,6.965,51.7758
7.69,6.865,52.7956
7.94,6.748,53.6284
8.20,6.485,53.1967
8.45,6.251,52.8779
8.71,6.152,53.6190
8.97,6.119,54.9055
9.22,6.112,56.4041
9.48,6.104,57.8988
9.74,6.097,59.3896
9.99,6.089,60.8765
10.25,6.081,62.3595
10.50,6.074,63.8387
10.76,6.069,65.3431
11.02,6.067,66.8731
11.27,6.064,68.4020
11.53,6.062,69.9296
11.79,6.060,71.4561
12.04,6.057,72.9813
12.30,6.055,74.5054
12.56,6.053,76.0282
12.81,6.050,77.5499
13.07,6.048,79.0703
13.32,6.046,80.5896
13.58,6.043,82.1077
13.84,6.041,83.6245
14.09,6.039,85.1402
14.35,6.036,86.6547
14.61,6.034,88.1679
14.86,6.032,89.6800
15.12,6.029,91.1909
15.38,6.027,92.7006
15.63,6.025,94.2091
15.89,6.022,95.7164
16.14,6.020,97.2224
16.40,6.018,98.7273
16.66,6.015,100.2310
16.91,6.011,101.6980
17.17,6.005,103.1322
17.43,5.998,104.5633
17.68,5.992,105.9911
17.94,5.986,107.4158
18.19,5.980,108.8373
18.45,5.973,110.2556
18.71,5.967,111.6707
18.96,5.961,113.0827
19.22,5.945,114.2954
19.48,5.909,115.1261
19.73,5.844,115.3643
19.99,5.771,115.3987
20.25,5.657,114.5638
20.50,5.565,114.1278
20.76,5.432,112.7965
21.01,5.263,110.6289
21.27,5.060,107.6650
21.53,4.833,104.0765
21.78,4.559,99.3514
22.04,4.384,96.6513
22.30,4.244,94.6566
22.55,4.214,95.0665
22.81,4.184,95.4610
23.07,4.177,96.3643
23.32,4.173,97.3541
23.58,4.170,98.3423
23.83,4.166,99.3286
24.09,4.163,100.3132
24.35,4.159,101.2960
24.60,4.156,102.2770
24.86,4.152,103.2562
25.12,4.149,104.2337
25.37,4.145,105.2093
25.63,4.142,106.1832
25.88,4.138,107.1554
26.14,4.135,108.1257
26.40,4.131,109.0943
26.65,4.128,110.0611
26.91,4.125,111.0261
27.17,4.121,111.9894
27.42,4.118,112.9508
27.68,4.114,113.9105
27.94,4.111,114.8685
28.19,4.107,115.8246
28.45,4.104,116.7790
28.70,4.100,117.7316
28.96,4.097,118.6824
29.22,4.093,119.6314
29.47,4.090,120.5787
29.73,4.086,121.5241
29.99,4.080,122.3829
30.24,4.072,123.1957
30.50,4.065,124.0046
30.76,4.057,124.8095
31.01,4.049,125.6104
31.27,4.042,126.4074
31.52,4.034,127.2004
31.78,4.026,127.9895
32.04,4.018,128.7746
32.29,4.011,129.5558
32.55,4.003,130.3330
32.81,3.995,131.1063
33.06,3.979,131.5873
33.32,3.928,130.9179
33.57,3.866,129.8401
33.83,3.771,127.6158
34.09,3.665,124.9589
34.34,3.531,121.2870
34.60,3.378,116.9121
34.86,3.220,112.2579
35.11,3.017,105.9617
35.37,2.825,99.9546
35.63,2.611,93.0348
35.88,2.415,86.6967
36.14,2.200,79.5244
36.39,1.983,72.2118
36.65,1.750,64.1502
36.91,1.536,56.7023
37.16,1.288,47.8981
37.42,1.083,40.5676
37.68,0.830,31.3064
37.93,0.605,22.9704
38.19,0.276,10.5670

Sample No.,27
Date & Time,'2021-12-30 14:04:21
Data Type,OPC
Voc (V),38.45
Isc (A),8.402
Pmax (W),131.7199
Vpm (V),33.01
Ipm (A),3.989
EFF (%),6.775
FF,0.407
Tc (degC),14.4
Irr (W/m2),690
Nms,1
Rs (Ohm),0.9399
V (V),I (A),P (W)
0.25,8.348,2.1400
0.51,8.294,4.2524
0.76,8.241,6.3374
1.02,8.187,8.3949
1.28,8.133,10.4248
1.53,8.080,12.4271
1.79,8.026,14.4020
2.05,7.972,16.3496
2.30,7.919,18.2697
2.56,7.865,20.1618
2.81,7.811,22.0267
3.07,7.758,23.8640
3.33,7.704,25.6744
3.58,7.650,27.4567
3.84,7.597,29.2116
4.10,7.318,30.0137
4.35,7.297,31.7996
4.61,7.263,33.5129
4.87,7.249,35.3082
5.12,7.239,37.1120
5.38,7.228,38.9104
5.63,7.217,40.7007
5.89,7.206,42.4848
6.15,7.194,44.2633
6.40,7.178,46.0042
6.66,7.162,47.7358
6.92,7.131,49.3560
7.17,7.062,50.6914
7.43,6.965,51.7758
7.69,6.865,52.7956
7.94,6.748,53.6284
8.20,6.485,53.1967
8.45,6.251,52.8779
8.71,6.152,53.6190
8.97,6.119,54.9055
9.22,6.112,56.4041
9.48,6.104,57.8988
9.74,6.097,59.3896
9.99,6.089,60.8765
10.25,6.081,62.3595
10.50,6.074,63.8387
10.76,6.069,65.3431
11.02,6.067,66.8731
11.27,6.064,68.4020
11.53,6.062,69.9296
11.79,6.060,71.4561
12.04,6.057,72.9813
12.30,6.055,74.5054
12.56,6.053,76.0282
12.81,6.050,77.5499
13.07,6.048,79.0703
13.32,6.046,80.5896
13.58,6.043,82.1077
13.84,6.041,83.6245
14.09,6.039,85.1402
14.35,6.036,86.6547
14.61,6.034,88.1679
14.86,6.032,89.6800
15.12,6.029,91.1909
15.38,6.027,92.7006
15.63,6.025,94.2091
15.89,6.022,95.7164
16.14,6.020,97.2224
16.40,6.018,98.7273
16.66,6.015,100.2310
16.91,6.011,101.6980
17.17,6.005,103.1322
17.43,5.998,104.5633
17.68,5.992,105.9911
17.94,5.986,107.4158
18.19,5.980,108.8373
18.45,5.973,110.2556
18.71,5.967,111.6707
18.96,5.961,113.0827
19.22,5.945,114.2954
19.48,5.909,115.1261
19.73,5.844,115.3643
19.99,5.771,115.3987
20.25,5.657,114.5638
20.50,5.565,114.1278
20.76,5.432,112.7965
21.01,5.263,110.6289
21.27,5.060,107.6650
21.53,4.833,104.0765
21.78,4.559,99.3514
22.04,4.384,96.6513
22.30,4.244,94.6566
22.55,4.214,95.0665
22.81,4.184,95.4610
23.07,4.177,96.3643
23.32,4.173,97.3541
23.58,4.170,98.3423
23.83,4.166,99.3286
24.09,4.163,100.3132
24.35,4.159,101.2960
24.60,4.156,102.2770
24.86,4.152,103.2562
25.12,4.149,104.2337
25.37,4.145,105.2093
25.63,4.142,106.1832
25.88,4.138,107.1554
26.14,4.135,108.1257
26.40,4.131,109.0943
26.65,4.128,110.0611
26.91,4.125,111.0261
27.17,4.121,111.9894
27.42,4.118,112.9508
27.68,4.114,113.9105
27.94,4.111,114.8685
28.19,4.107,115.8246
28.45,4.104,116.7790
28.70,4.100,117.7316
28.96,4.097,118.6824
29.22,4.093,119.6314
29.47,4.090,120.5787
29.73,4.086,121.5241
29.99,4.080,122.3829
30.24,4.072,123.1957
30.50,4.065,124.0046
30.76,4.057,124.8095
31.01,4.049,125.6104
31.27,4.042,126.4074
31.52,4.034,127.2004
31.78,4.026,127.9895
32.04,4.018,128.7746
32.29,4.011,129.5558
32.55,4.003,130.3330
32.81,3.995,131.1063
33.06,3.979,131.5873
33.32,3.928,130.9179
33.57,3.866,129.8401
33.83,3.771,127.6158
34.09,3.665,124.9589
34.34,3.531,121.2870
34.60,3.378,116.9121
34.86,3.220,112.2579
35.11,3.017,105.9617
35.37,2.825,99.9546
35.63,2.611,93.0348
35.88,2.415,86.6967
36.14,2.200,79.5244
36.39,1.983,72.2118
36.65,1.750,64.1502
36.91,1.536,56.7023
37.16,1.288,47.8981
37.42,1.083,40.5676
37.68,0.830,31.3064
37.93,0.605,22.9704
38.19,0.276,10.5670

Sample No.,28
Date & Time,'2021-12-30 14:04:49
Data Type,OPC
Voc (V),38.45
Isc (A),8.402
Pmax (W),131.7199
Vpm (V),33.01
Ipm (A),3.989
EFF (%),6.775
FF,0.407
Tc (degC),14.4
Irr (W/m2),690
Nms,1
Rs (Ohm),0.9399
V (V),I (A),P (W)
0.25,8.348,2.1400
0.51,8.294,4.2524
0.76,8.241,6.3374
1.02,8.187,8.3949
1.28,8.133,10.4248
1.53,8.080,12.4271
1.79,8.026,14.4020
2.05,7.972,16.3496
2.30,7.919,18.2697
2.56,7.865,20.1618
2.81,7.811,22.0267
3.07,7.758,23.8640
3.33,7.704,25.6744
3.58,7.650,27.4567
3.84,7.597,29.2116
4.10,7.318,30.0137
4.35,7.297,31.7996
4.61,7.263,33.5129
4.87,7.249,35.3082
5.12,7.239,37.1120
5.38,7.228,38.9104
5.63,7.217,40.7007
5.89,7.206,42.4848
6.15,7.194,44.2633
6.40,7.178,46.0042
6.66,7.162,47.7358
6.92,7.131,49.3560
7.17,7.062,50.6914
7.43,6.965,51.7758
7.69,6.865,52.7956
7.94,6.748,53.6284
8.20,6.485,53.1967
8.45,6.251,52.8779
8.71,6.152,53.6190
8.97,6.119,54.9055
9.22,6.112,56.4041
9.48,6.104,57.8988
9.74,6.097,59.3896
9.99,6.089,60.8765
10.25,6.081,62.3595
10.50,6.074,63.8387
10.76,6.069,65.3431
11.02,6.067,66.8731
11.27,6.064,68.4020
11.53,6.062,69.9296
11.79,6.060,71.4561
12.04,6.057,72.9813
12.30,6.055,74.5054
12.56,6.053,76.0282
12.81,6.050,77.5499
13.07,6.048,79.0703
13.32,6.046,80.5896
13.58,6.043,82.1077
13.84,6.041,83.6245
14.09,6.039,85.1402
14.35,6.036,86.6547
14.61,6.034,88.1679
14.86,6.032,89.6800
15.12,6.029,91.1909
15.38,6.027,92.7006
15.63,6.025,94.2091
15.89,6.022,95.7164
16.14,6.020,97.2224
16.40,6.018,98.7273
16.66,6.015,100.2310
16.91,6.011,101.6980
17.17,6.005,103.1322
17.43,5.998,104.5633
17.68,5.992,105.9911
17.94,5.986,107.4158
18.19,5.980,108.8373
18.45,5.973,110.2556
18.71,5.967,111.6707
18.96,5.961,113.0827
19.22,5.945,114.2954
19.48,5.909,115.1261
19.73,5.844,115.3643
19.99,5.771,115.3987
20.25,5.657,114.5638
20.50,5.565,114.1278
20.76,5.432,112.7965
21.01,5.263,110.6289
21.27,5.060,107.6650
21.53,4.833,104.0765
21.78,4.559,99.3514
22.04,4.384,96.6513
22.30,4.244,94.6566
22.55,4.214,95.0665
22.81,4.184,95.4610
23.07,4.177,96.3643
23.32,4.173,97.3541
23.58,4.170,98.3423
23.83,4.166,99.3286
24.09,4.163,100.3132
24.35,4.159,101.2960
24.60,4.156,102.2770
24.86,4.152,103.2562
25.12,4.149,104.2337
25.37,4.145,105.2093
25.63,4.142,106.1832
25.88,4.138,107.1554
26.14,4.135,108.1257
26.40,4.131,109.0943
26.65,4.128,110.0611
26.91,4.125,111.0261
27.17,4.121,111.9894
27.42,4.118,112.9508
27.68,4.114,113.9105
27.94,4.111,114.8685
28.19,4.107,115.8246
28.45,4.104,116.7790
28.70,4.100,117.7316
28.96,4.097,118.6824
29.22,4.093,119.6314
29.47,4.090,120.5787
29.73,4.086,121.5241
29.99,4.080,122.3829
30.24,4.072,123.1957
30.50,4.065,124.0046
30.76,4.057,124.8095
31.01,4.049,125.6104
31.27,4.042,126.4074
31.52,4.034,127.2004
31.78,4.026,127.9895
32.04,4.018,128.7746
32.29,4.011,129.5558
32.55,4.003,130.3330
32.81,3.995,131.1063
33.06,3.979,131.5873
33.32,3.928,130.9179
33.57,3.866,129.8401
33.83,3.771,127.6158
34.09,3.665,124.9589
34.34,3.531,121.2870
34.60,3.378,116.9121
34.86,3.220,112.2579
35.11,3.017,105.9617
35.37,2.825,99.9546
35.63,2.611,93.0348
35.88,2.415,86.6967
36.14,2.200,79.5244
36.39,1.983,72.2118
36.65,1.750,64.1502
36.91,1.536,56.7023
37.16,1.288,47.8981
37.42,1.083,40.5676
37.68,0.830,31.3064
37.93,0.605,22.9704
38.19,0.276,10.5670

Sample No.,29
Date & Time,'2021-12-30 14:04:54
Data Type,OPC
Voc (V),38.49
Isc (A),8.364
Pmax (W),131.8802
Vpm (V),33.20
Ipm (A),3.971
EFF (%),6.783
FF,0.409
Tc (degC),14.3
Irr (W/m2),72
Nms,1
Rs (Ohm),1.8962
V (V),I (A),P (W)
0.25,8.318,2.1350
0.51,8.273,4.2469
0.76,8.228,6.3356
1.02,8.183,8.4011
1.28,8.138,10.4435
1.53,8.093,12.4626
1.79,8.048,14.4586
2.05,8.002,16.4314
2.30,7.957,18.3811
2.56,7.912,20.3077
2.82,7.867,22.2108
3.07,7.822,24.0909
3.33,7.777,25.9478
3.59,7.732,27.7815
3.84,7.686,29.5920
4.10,7.412,30.4387
4.36,7.381,32.2035
4.61,7.366,34.0285
4.87,7.353,35.8579
5.13,7.342,37.6875
5.38,7.332,39.5173
5.64,7.322,41.3418
5.90,7.310,43.1525
6.15,7.297,44.9518
6.41,7.283,46.7298
6.67,7.260,48.4471
6.92,7.236,50.1417
7.18,7.189,51.6637
7.44,7.136,53.1164
7.69,6.986,53.7906
7.95,6.965,55.4190
8.21,6.911,56.7612
8.46,6.529,55.2970
8.72,6.222,54.2940
8.98,6.198,55.6807
9.23,6.192,57.2130
9.49,6.186,58.7420
9.75,6.179,60.2677
10.00,6.173,61.7902
10.26,6.166,63.3094
10.52,6.160,64.8253
10.77,6.154,66.3380
11.03,6.150,67.8713
11.29,6.147,69.4228
11.54,6.145,70.9731
11.80,6.142,72.5221
12.06,6.140,74.0699
12.31,6.138,75.6165
12.57,6.135,77.1619
12.83,6.133,78.7061
13.08,6.131,80.2490
13.34,6.128,81.7907
13.60,6.126,83.3312
13.85,6.123,84.8705
14.11,6.121,86.4085
14.37,6.119,87.9453
14.62,6.116,89.4809
14.88,6.114,91.0153
15.14,6.111,92.5484
15.39,6.109,94.0804
15.65,6.107,95.6111
15.91,6.104,97.1405
16.16,6.102,98.6688
16.42,6.100,100.1958
16.68,6.097,101.7187
16.93,6.091,103.1852
17.19,6.085,104.6487
17.45,6.080,106.1093
17.70,6.074,107.5668
17.96,6.068,109.0214
18.22,6.062,110.4730
18.47,6.056,111.9216
18.73,6.051,113.3672
18.99,6.045,114.8098
19.24,6.021,115.9087
19.50,5.988,116.8117
19.76,5.938,117.3568
20.01,5.880,117.7161
20.27,5.667,114.9172
20.53,5.509,113.1122
20.78,5.335,110.9230
21.04,5.155,108.4948
21.30,4.941,105.2615
21.55,4.677,100.8373
21.81,4.355,95.0086
22.07,4.305,95.0357
22.32,4.262,95.1846
22.58,4.249,95.9748
22.84,4.244,96.9616
23.09,4.240,97.9461
23.35,4.235,98.9283
23.61,4.231,99.9081
23.86,4.226,100.8856
24.12,4.222,101.8607
24.38,4.217,102.8336
24.63,4.213,103.8041
24.89,4.208,104.7722
25.15,4.204,105.7380
25.40,4.199,106.7015
25.66,4.194,107.6627
25.92,4.190,108.6215
26.17,4.185,109.5780
26.43,4.181,110.5322
26.69,4.176,111.4840
26.94,4.172,112.4335
27.20,4.167,113.3807
27.46,4.163,114.3255
27.71,4.158,115.2616
27.97,4.153,116.1897
28.23,4.148,117.1152
28.48,4.143,118.0383
28.74,4.138,118.9587
29.00,4.133,119.8766
29.25,4.128,120.7920
29.51,4.123,121.7048
29.77,4.118,122.6151
30.02,4.113,123.5228
30.28,4.108,124.4279
30.54,4.103,125.3305
30.79,4.098,126.2306
31.05,4.093,127.1281
31.31,4.088,128.0230
31.56,4.083,128.9154
31.82,4.078,129.8052
32.08,4.073,130.6925
32.33,4.068,131.5773
32.59,4.046,131.8758
32.85,4.014,131.8887
33.10,3.983,131.8856
33.36,3.925,130.9565
33.62,3.839,129.0959
33.87,3.727,126.2645
34.13,3.608,123.1624
34.39,3.451,118.7136
34.64,3.365,116.6012
34.90,3.210,112.0626
35.16,3.035,106.7447
35.41,2.863,101.4089
35.67,2.664,95.0707
35.93,2.451,88.0792
36.18,2.237,80.9664
36.44,2.050,74.7401
36.70,1.798,66.0179
36.95,1.594,58.9301
37.21,1.344,50.0271
37.47,1.092,40.9267
37.72,0.799,30.1536
37.98,0.523,19.8903
38.24,0.290,11.1252

Sample No.,30
Date & Time,'2021-12-30 14:05:17
Data Type,OPC
Voc (V),38.49
Isc (A),8.364
Pmax (W),131.8802
Vpm (V),33.20
Ipm (A),3.971
EFF (%),6.783
FF,0.409
Tc (degC),14.3
Irr (W/m2),72
Nms,1
Rs (Ohm),1.8962
V (V),I (A),P (W)
0.25,8.318,2.1350
0.51,8.273,4.2469
0.76,8.228,6.3356
1.02,8.183,8.4011
1.28,8.138,10.4435
1.53,8.093,12.4626
1.79,8.048,14.4586
2.05,8.002,16.4314
2.30,7.957,18.3811
2.56,7.912,20.3077
2.82,7.867,22.2108
3.07,7.822,24.0909
3.33,7.777,25.9478
3.59,7.732,27.7815
3.84,7.686,29.5920
4.10,7.412,30.4387
4.36,7.381,32.2035
4.61,7.366,34.0285
4.87,7.353,35.8579
5.13,7.342,37.6875
5.38,7.332,39.5173
5.64,7.322,41.3418
5.90,7.310,43.1525
6.15,7.297,44.9518
6.41,7.283,46.7298
6.67,7.260,48.4471
6.92,7.236,50.1417
7.18,7.189,51.6637
7.44,7.136,53.1164
7.69,6.986,53.7906
7.95,6.965,55.4190
8.21,6.911,56.7612
8.46,6.529,55.2970
8.72,6.222,54.2940
8.98,6.198,55.6807
9.23,6.192,57.2130
9.49,6.186,58.7420
9.75,6.179,60.2677
10.00,6.173,61.7902
10.26,6.166,63.3094
10.52,6.160,64.8253
10.77,6.154,66.3380
11.03,6.150,67.8713
11.29,6.147,69.4228
11.54,6.145,70.9731
11.80,6.142,72.5221
12.06,6.140,74.0699
12.31,6.138,75.6165
12.57,6.135,77.1619
12.83,6.133,78.7061
13.08,6.131,80.2490
13.34,6.128,81.7907
13.60,6.126,83.3312
13.85,6.123,84.8705
14.11,6.121,86.4085
14.37,6.119,87.9453
14.62,6.116,89.4809
14.88,6.114,91.0153
15.14,6.111,92.5484
15.39,6.109,94.0804
15.65,6.107,95.6111
15.91,6.104,97.1405
16.16,6.102,98.6688
16.42,6.100,100.1958
16.68,6.097,101.7187
16.93,6.091,103.1852
17.19,6.085,104.6487
17.45,6.080,106.1093
17.70,6.074,107.5668
17.96,6.068,109.0214
18.22,6.062,110.4730
18.47,6.056,111.9216
18.73,6.051,113.3672
18.99,6.045,114.8098
19.24,6.021,115.9087
19.50,5.988,116.8117
19.76,5.938,117.3568
20.01,5.880,117.7161
20.27,5.667,114.9172
20.53,5.509,113.1122
20.78,5.335,110.9230
21.04,5.155,108.4948
21.30,4.941,105.2615
21.55,4.677,100.8373
21.81,4.355,95.0086
22.07,4.305,95.0357
22.32,4.262,95.1846
22.58,4.249,95.9748
22.84,4.244,96.9616
23.09,4.240,97.9461
23.35,4.235,98.9283
23.61,4.231,99.9081
23.86,4.226,100.8856
24.12,4.222,101.8607
24.38,4.217,102.8336
24.63,4.213,103.8041
24.89,4.208,104.7722
25.15,4.204,105.7380
25.40,4.199,106.7015
25.66,4.194,107.6627
25.92,4.190,108.6215
26.17,4.185,109.5780
26.43,4.181,110.5322
26.69,4.176,111.4840
26.94,4.172,112.4335
27.20,4.167,113.3807
27.46,4.163,114.3255
27.71,4.158,115.2616
27.97,4.153,116.1897
28.23,4.148,117.1152
28.48,4.143,118.0383
28.74,4.138,118.9587
29.00,4.133,119.8766
29.25,4.128,120.7920
29.51,4.123,121.7048
29.77,4.118,122.6151
30.02,4.113,123.5228
30.28,4.108,124.4279
30.54,4.103,125.3305
30.79,4.098,126.2306
31.05,4.093,127.1281
31.31,4.088,128.0230
31.56,4.083,128.9154
31.82,4.078,129.8052
32.08,4.073,130.6925
32.33,4.068,131.5773
32.59,4.046,131.8758
32.85,4.014,131.8887
33.10,3.983,131.8856
33.36,3.925,130.9565
33.62,3.839,129.0959
33.87,3.727,126.2645
34.13,3.608,123.1624
34.39,3.451,118.7136
34.64,3.365,116.6012
34.90,3.210,112.0626
35.16,3.035,106.7447
35.41,2.863,101.4089
35.67,2.664,95.0707
35.93,2.451,88.0792
36.18,2.237,80.9664
36.44,2.050,74.7401
36.70,1.798,66.0179
36.95,1.594,58.9301
37.21,1.344,50.0271
37.47,1.092,40.9267
37.72,0.799,30.1536
37.98,0.523,19.8903
38.24,0.290,11.1252

Sample No.,31
Date & Time,'2021-12-30 14:07:08
Data Type,OPC
Voc (V),38.62
Isc (A),8.119
Pmax (W),134.5719
Vpm (V),33.31
Ipm (A),4.039
EFF (%),6.922
FF,0.429
Tc (degC),14.4
Irr (W/m2),703
Nms,1
Rs (Ohm),0.9836
V (V),I (A),P (W)
0.25,8.092,2.0837
0.51,8.064,4.1533
0.77,8.037,6.2088
1.03,8.009,8.2501
1.28,7.982,10.2772
1.54,7.954,12.2901
1.80,7.927,14.2889
2.06,7.899,16.2736
2.31,7.872,18.2440
2.57,7.844,20.2004
2.83,7.817,22.1424
3.09,7.789,24.0703
3.34,7.762,25.9844
3.60,7.734,27.8840
3.86,7.707,29.7692
4.12,7.455,30.7160
4.37,7.426,32.5100
4.63,7.408,34.3380
4.89,7.395,36.1840
5.15,7.384,38.0304
5.40,7.374,39.8795
5.66,7.365,41.7231
5.92,7.353,43.5524
6.18,7.342,45.3758
6.43,7.328,47.1804
6.69,7.315,48.9794
6.95,7.304,50.7845
7.21,7.293,52.5838
7.46,7.283,54.3930
7.72,7.274,56.1981
7.98,7.266,58.0046
8.24,7.261,59.8346
8.49,7.256,61.6620
8.75,7.251,63.4868
9.01,7.246,65.3090
9.27,7.241,67.1290
9.52,7.238,68.9638
9.78,7.235,70.7970
10.04,7.232,72.6286
10.30,7.228,74.4586
10.55,7.225,76.2870
10.81,7.222,78.1137
11.07,7.219,79.9389
11.33,7.216,81.7624
11.58,7.213,83.5876
11.84,7.210,85.4137
12.10,7.208,87.2384
12.36,7.205,89.0618
12.61,7.202,90.8837
12.87,7.200,92.7044
13.13,7.197,94.5236
13.39,7.195,96.3415
13.64,7.192,98.1580
13.90,7.189,99.9731
14.16,7.186,101.7793
14.42,7.182,103.5761
14.67,7.179,105.3709
14.93,7.175,107.1638
15.19,7.171,108.9548
15.45,7.167,110.7439
15.70,7.164,112.5311
15.96,7.160,114.3111
16.22,7.153,116.0517
16.48,7.147,117.7890
16.73,7.141,119.5231
16.99,7.134,121.2538
17.25,7.125,122.9309
17.51,7.115,124.5848
17.76,7.104,126.2334
18.02,7.080,127.6214
18.28,7.046,128.8302
18.54,6.967,129.1717
18.79,6.905,129.7981
19.05,6.785,129.2957
19.31,6.677,128.9661
19.57,6.528,127.7547
19.82,6.403,126.9617
20.08,6.255,125.6510
20.34,6.106,124.2201
20.60,5.896,121.4684
20.85,5.659,118.0366
21.11,5.465,115.4133
21.37,5.275,112.7580
21.63,5.055,109.3554
21.88,4.663,102.0830
22.14,4.378,96.9671
22.40,4.329,96.9920
22.66,4.299,97.4283
22.91,4.294,98.4139
23.17,4.288,99.3968
23.43,4.283,100.3770
23.69,4.278,101.3544
23.94,4.273,102.3291
24.20,4.267,103.3011
24.46,4.262,104.2703
24.72,4.257,105.2368
24.97,4.251,106.2006
25.23,4.246,107.1617
25.49,4.241,108.1200
25.75,4.235,109.0756
26.00,4.230,110.0284
26.26,4.225,110.9786
26.52,4.220,111.9260
26.78,4.215,112.8802
27.03,4.211,113.8573
27.29,4.207,114.8323
27.55,4.203,115.8053
27.81,4.199,116.7762
28.06,4.195,117.7450
28.32,4.191,118.7118
28.58,4.187,119.6765
28.84,4.183,120.6391
29.09,4.179,121.5997
29.35,4.175,122.5582
29.61,4.171,123.5147
29.87,4.167,124.4691
30.12,4.163,125.4214
30.38,4.159,126.3717
30.64,4.155,127.3199
30.90,4.151,128.2661
31.15,4.147,129.2101
31.41,4.142,130.1522
31.67,4.138,131.0921
31.93,4.134,132.0300
32.18,4.130,132.9658
32.44,4.118,133.6278
32.70,4.095,133.9219
32.96,4.071,134.2039
33.21,4.048,134.4738
33.47,4.002,133.9961
33.73,3.942,132.9995
33.99,3.863,131.3044
34.24,3.774,129.2808
34.50,3.627,125.1725
34.76,3.485,121.1535
35.02,3.310,115.9179
35.27,3.176,112.0698
35.53,2.902,103.1417
35.79,2.692,96.3600
36.05,2.485,89.6023
36.30,2.267,82.3186
36.56,2.038,74.5359
36.82,1.846,67.9994
37.08,1.587,58.8634
37.33,1.348,50.3602
37.59,1.077,40.5132
37.85,0.825,31.2408
38.11,0.551,20.9995
38.36,0.280,10.7605

Sample No.,32
Date & Time,'2021-12-30 14:07:33
Data Type,OPC
Voc (V),38.62
Isc (A),8.119
Pmax (W),134.5719
Vpm (V),33.31
Ipm (A),4.039
EFF (%),6.922
FF,0.429
Tc (degC),14.4
Irr (W/m2),703
Nms,1
Rs (Ohm),0.9836
V (V),I (A),P (W)
0.25,8.092,2.0837
0.51,8.064,4.1533
0.77,8.037,6.2088
1.03,8.009,8.2501
1.28,7.982,10.2772
1.54,7.954,12.2901
1.80,7.927,14.2889
2.06,7.899,16.2736
2.31,7.872,18.2440
2.57,7.844,20.2004
2.83,7.817,22.1424
3.09,7.789,24.0703
3.34,7.762,25.9844
3.60,7.734,27.8840
3.86,7.707,29.7692
4.12,7.455,30.7160
4.37,7.426,32.5100
4.63,7.408,34.3380
4.89,7.395,36.1840
5.15,7.384,38.0304
5.40,7.374,39.8795
5.66,7.365,41.7231
5.92,7.353,43.5524
6.18,7.342,45.3758
6.43,7.328,47.1804
6.69,7.315,48.9794
6.95,7.304,50.7845
7.21,7.293,52.5838
7.46,7.283,54.3930
7.72,7.274,56.1981
7.98,7.266,58.0046
8.24,7.261,59.8346
8.49,7.256,61.6620
8.75,7.251,63.4868
9.01,7.246,65.3090
9.27,7.241,67.1290
9.52,7.238,68.9638
9.78,7.235,70.7970
10.04,7.232,72.6286
10.30,7.228,74.4586
10.55,7.225,76.2870
10.81,7.222,78.1137
11.07,7.219,79.9389
11.33,7.216,81.7624
11.58,7.213,83.5876
11.84,7.210,85.4137
12.10,7.208,87.2384
12.36,7.205,89.0618
12.61,7.202,90.8837
12.87,7.200,92.7044
13.13,7.197,94.5236
13.39,7.195,96.3415
13.64,7.192,98.1580
13.90,7.189,99.9731
14.16,7.186,101.7793
14.42,7.182,103.5761
14.67,7.179,105.3709
14.93,7.175,107.1638
15.19,7.171,108.9548
15.45,7.167,110.7439
15.70,7.164,112.5311
15.96,7.160,114.3111
16.22,7.153,116.0517
16.48,7.147,117.7890
16.73,7.141,119.5231
16.99,7.134,121.2538
17.25,7.125,122.9309
17.51,7.115,124.5848
17.76,7.104,126.2334
18.02,7.080,127.6214
18.28,7.046,128.8302
18.54,6.967,129.1717
18.79,6.905,129.7981
19.05,6.785,129.2957
19.31,6.677,128.9661
19.57,6.528,127.7547
19.82,6.403,126.9617
20.08,6.255,125.6510
20.34,6.106,124.2201
20.60,5.896,121.4684
20.85,5.659,118.0366
21.11,5.465,115.4133
21.37,5.275,112.7580
21.63,5.055,109.3554
21.88,4.663,102.0830
22.14,4.378,96.9671
22.40,4.329,96.9920
22.66,4.299,97.4283
22.91,4.294,98.4139
23.17,4.288,99.3968
23.43,4.283,100.3770
23.69,4.278,101.3544
23.94,4.273,102.3291
24.20,4.267,103.3011
24.46,4.262,104.2703
24.72,4.257,105.2368
24.97,4.251,106.2006
25.23,4.246,107.1617
25.49,4.241,108.1200
25.75,4.235,109.0756
26.00,4.230,110.0284
26.26,4.225,110.9786
26.52,4.220,111.9260
26.78,4.215,112.8802
27.03,4.211,113.8573
27.29,4.207,114.8323
27.55,4.203,115.8053
27.81,4.199,116.7762
28.06,4.195,117.7450
28.32,4.191,118.7118
28.58,4.187,119.6765
28.84,4.183,120.6391
29.09,4.179,121.5997
29.35,4.175,122.5582
29.61,4.171,123.5147
29.87,4.167,124.4691
30.12,4.163,125.4214
30.38,4.159,126.3717
30.64,4.155,127.3199
30.90,4.151,128.2661
31.15,4.147,129.2101
31.41,4.142,130.1522
31.67,4.138,131.0921
31.93,4.134,132.0300
32.18,4.130,132.9658
32.44,4.118,133.6278
32.70,4.095,133.9219
32.96,4.071,134.2039
33.21,4.048,134.4738
33.47,4.002,133.9961
33.73,3.942,132.9995
33.99,3.863,131.3044
34.24,3.774,129.2808
34.50,3.627,125.1725
34.76,3.485,121.1535
35.02,3.310,115.9179
35.27,3.176,112.0698
35.53,2.902,103.1417
35.79,2.692,96.3600
36.05,2.485,89.6023
36.30,2.267,82.3186
36.56,2.038,74.5359
36.82,1.846,67.9994
37.08,1.587,58.8634
37.33,1.348,50.3602
37.59,1.077,40.5132
37.85,0.825,31.2408
38.11,0.551,20.9995
38.36,0.280,10.7605

Sample No.,33
Date & Time,'2021-12-30 14:07:56
Data Type,OPC
Voc (V),38.65
Isc (A),8.219
Pmax (W),135.8979
Vpm (V),33.23
Ipm (A),4.089
EFF (%),6.990
FF,0.427
Tc (degC),14.9
Irr (W/m2),67
Nms,1
Rs (Ohm),0.9499
V (V),I (A),P (W)
0.25,8.188,2.1102
0.51,8.157,4.2046
0.77,8.126,6.2830
1.03,8.095,8.3456
1.28,8.065,10.3923
1.54,8.034,12.4230
1.80,8.003,14.4378
2.06,7.972,16.4368
2.31,7.941,18.4198
2.57,7.910,20.3869
2.83,7.879,22.3380
3.09,7.849,24.2736
3.35,7.818,26.1929
3.60,7.787,28.0964
3.86,7.756,29.9839
4.12,7.731,31.8815
4.38,7.483,32.7852
4.63,7.464,34.6266
4.89,7.450,36.4826
5.15,7.439,38.3471
5.41,7.429,40.2075
5.66,7.419,42.0674
5.92,7.410,43.9222
6.18,7.397,45.7570
6.44,7.384,47.5790
6.70,7.366,49.3592
6.95,7.335,51.0407
7.21,7.302,52.6948
7.47,7.287,54.4681
7.73,7.274,56.2444
7.98,7.266,58.0564
8.24,7.259,59.8643
8.50,7.251,61.6682
8.76,7.245,63.4890
9.01,7.241,65.3170
9.27,7.237,67.1428
9.53,7.232,68.9664
9.79,7.228,70.7877
10.05,7.223,72.6068
10.30,7.219,74.4268
10.56,7.217,76.2598
10.82,7.214,78.0914
11.08,7.212,79.9216
11.33,7.209,81.7505
11.59,7.206,83.5781
11.85,7.204,85.4043
12.11,7.201,87.2291
12.37,7.198,89.0526
12.62,7.196,90.8748
12.88,7.193,92.6956
13.14,7.190,94.5135
13.40,7.187,96.3217
13.65,7.184,98.1282
13.91,7.180,99.9329
14.17,7.177,101.7359
14.43,7.174,103.5372
14.68,7.170,105.3368
14.94,7.167,107.1346
15.20,7.164,108.9307
15.46,7.160,110.7152
15.72,7.155,112.4811
15.97,7.150,114.2445
16.23,7.144,116.0052
16.49,7.139,117.7633
16.75,7.134,119.5188
17.00,7.128,121.2467
17.26,7.119,122.9376
17.52,7.111,124.6242
17.78,7.102,126.3065
18.03,7.087,127.8615
18.29,7.070,129.3780
18.55,7.017,130.2209
18.81,6.959,130.9206
19.07,6.886,131.3352
19.32,6.769,130.8452
19.58,6.657,130.3980
19.84,6.551,130.0101
20.10,6.401,128.6844
20.35,6.226,126.7660
20.61,6.014,123.9981
20.87,5.822,121.5387
21.13,5.635,119.0932
21.39,5.251,112.3232
21.64,5.055,109.4309
21.90,4.735,103.7371
22.16,4.452,98.6883
22.42,4.344,97.4194
22.67,4.328,98.1749
22.93,4.312,98.9221
23.19,4.296,99.6610
23.45,4.280,100.3916
23.70,4.267,101.1754
23.96,4.264,102.2004
24.22,4.261,103.2237
24.48,4.257,104.2455
24.74,4.254,105.2656
24.99,4.251,106.2841
25.25,4.248,107.3010
25.51,4.245,108.3163
25.77,4.242,109.3300
26.02,4.239,110.3421
26.28,4.236,111.3526
26.54,4.232,112.3615
26.80,4.229,113.3687
27.05,4.226,114.3744
27.31,4.223,115.3784
27.57,4.220,116.3809
27.83,4.217,117.3817
28.09,4.214,118.3809
28.34,4.211,119.3785
28.60,4.207,120.3745
28.86,4.204,121.3689
29.12,4.201,122.3617
29.37,4.198,123.3529
29.63,4.195,124.3425
29.89,4.192,125.3304
30.15,4.189,126.3168
30.41,4.186,127.3015
30.66,4.183,128.2847
30.92,4.179,129.2662
31.18,4.171,130.0660
31.44,4.160,130.8170
31.69,4.150,131.5627
31.95,4.140,132.3031
32.21,4.129,133.0382
32.47,4.119,133.7680
32.72,4.109,134.4925
32.98,4.098,135.2117
33.24,4.086,135.8566
33.50,4.022,134.7778
33.76,3.939,133.0096
34.01,3.836,130.5217
34.27,3.723,127.6139
34.53,3.586,123.8541
34.79,3.420,119.0099
35.04,3.260,114.2885
35.30,3.065,108.2199
35.56,2.860,101.7452
35.82,2.657,95.1932
36.07,2.430,87.6977
36.33,2.205,80.1436
36.59,1.965,71.9120
36.85,1.734,63.9299
37.11,1.517,56.3058
37.36,1.267,47.3808
37.62,1.035,38.9793
37.88,0.763,28.9118
38.14,0.517,19.7391
38.39,0.247,9.4905

Sample No.,34
Date & Time,'2021-12-30 14:08:15
Data Type,OPC
Voc (V),38.69
Isc (A),8.296
Pmax (W),136.7267
Vpm (V),33.12
Ipm (A),4.127
EFF (%),7.033
FF,0.425
Tc (degC),14.9
Irr (W/m2),709
Nms,1
Rs (Ohm),1.0899
V (V),I (A),P (W)
0.25,8.266,2.1325
0.51,8.235,4.2494
0.77,8.205,6.3506
1.03,8.174,8.4360
1.28,8.144,10.5057
1.54,8.113,12.5596
1.80,8.083,14.5979
2.06,8.052,16.6203
2.32,8.022,18.6270
2.57,7.991,20.6179
2.83,7.961,22.5933
3.09,7.930,24.5529
3.35,7.900,26.4966
3.61,7.869,28.4247
3.86,7.839,30.3370
4.12,7.662,31.6310
4.38,7.558,33.1493
4.64,7.534,34.9862
4.90,7.519,36.8562
5.15,7.506,38.7337
5.41,7.496,40.6127
5.67,7.486,42.4921
5.93,7.477,44.3665
6.19,7.465,46.2210
6.44,7.452,48.0692
6.70,7.434,49.8665
6.96,7.392,51.4937
7.22,7.367,53.2181
7.48,7.351,54.9973
7.73,7.339,56.8071
7.99,7.331,58.6348
8.25,7.323,60.4583
8.51,7.315,62.2848
8.77,7.311,64.1328
9.02,7.306,65.9785
9.28,7.302,67.8219
9.54,7.297,69.6629
9.80,7.293,71.5016
10.06,7.288,73.3380
10.31,7.286,75.1877
10.57,7.283,77.0378
10.83,7.280,78.8865
11.09,7.277,80.7337
11.35,7.274,82.5795
11.60,7.272,84.4238
11.86,7.269,86.2667
12.12,7.266,88.1081
12.38,7.263,89.9481
12.64,7.260,91.7867
12.89,7.257,93.6203
13.15,7.254,95.4480
13.41,7.250,97.2739
13.67,7.247,99.0981
13.93,7.244,100.9205
14.18,7.240,102.7412
14.44,7.237,104.5601
14.70,7.233,106.3773
14.96,7.230,108.1927
15.22,7.226,109.9902
15.47,7.221,111.7777
15.73,7.216,113.5626
15.99,7.211,115.3450
16.25,7.206,117.1249
16.51,7.201,118.9022
16.76,7.194,120.6468
17.02,7.186,122.3649
17.28,7.178,124.0789
17.54,7.170,125.7887
17.80,7.154,127.3602
18.05,7.136,128.8716
18.31,7.096,129.9945
18.57,7.045,130.8616
18.83,6.954,130.9746
19.09,6.812,130.0580
19.34,6.718,129.9904
19.60,6.566,128.7540
19.86,6.424,127.6176
20.12,6.272,126.2253
20.38,6.114,124.6227
20.63,5.872,121.2012
20.89,5.685,118.8147
21.15,5.476,115.8519
21.41,5.239,112.1945
21.67,4.928,106.8140
21.92,4.728,103.6824
22.18,4.389,97.3995
22.44,4.373,98.1586
22.70,4.356,98.9090
22.96,4.340,99.6509
23.21,4.323,100.3841
23.47,4.307,101.1343
23.73,4.304,102.1698
23.99,4.301,103.2037
24.25,4.298,104.2359
24.50,4.295,105.2665
24.76,4.291,106.2954
25.02,4.288,107.3227
25.28,4.285,108.3484
25.54,4.282,109.3724
25.79,4.279,110.3947
26.05,4.275,111.4154
26.31,4.272,112.4345
26.57,4.269,113.4519
26.83,4.266,114.4676
27.08,4.263,115.4817
27.34,4.259,116.4942
27.60,4.256,117.5050
27.86,4.253,118.5142
28.12,4.250,119.5217
28.37,4.247,120.5275
28.63,4.243,121.5318
28.89,4.240,122.5343
29.15,4.237,123.5352
29.41,4.234,124.5345
29.66,4.231,125.5321
29.92,4.227,126.5281
30.18,4.224,127.5224
30.44,4.221,128.5151
30.70,4.217,129.4868
30.95,4.208,130.2779
31.21,4.198,131.0641
31.47,4.188,131.8454
31.73,4.179,132.6217
31.99,4.169,133.3930
32.24,4.160,134.1594
32.50,4.150,134.9208
32.76,4.141,135.6773
33.02,4.131,136.4289
33.28,4.092,136.1839
33.53,4.032,135.2287
33.79,3.942,133.2381
34.05,3.822,130.1852
34.31,3.703,127.0886
34.57,3.548,122.6569
34.82,3.378,117.6638
35.08,3.182,111.6449
35.34,2.947,104.1634
35.60,2.751,97.9588
35.86,2.544,91.2548
36.11,2.344,84.6726
36.37,2.130,77.4829
36.63,1.920,70.3651
36.89,1.672,61.7084
37.15,1.451,53.9130
37.40,1.228,45.9744
37.66,0.970,36.5478
37.92,0.739,28.0428
38.18,0.498,19.0289
38.44,0.236,9.0933

Sample No.,35
Date & Time,'2021-12-30 14:08:43
Data Type,OPC
Voc (V),38.73
Isc (A),8.323
Pmax (W),137.4480
Vpm (V),33.19
Ipm (A),4.141
EFF (%),7.070
FF,0.426
Tc (degC),15.0
Irr (W/m2),68
Nms,1
Rs (Ohm),1.0954
V (V),I (A),P (W)
0.25,8.292,2.1414
0.51,8.260,4.2665
0.77,8.229,6.3754
1.03,8.197,8.4680
1.29,8.166,10.5445
1.54,8.134,12.6045
1.80,8.103,14.6483
2.06,8.071,16.6760
2.32,8.040,18.6872
2.58,8.008,20.6823
2.84,7.977,22.6613
3.09,7.945,24.6236
3.35,7.914,26.5701
3.61,7.883,28.5001
3.87,7.851,30.4140
4.13,7.608,31.4380
4.39,7.556,33.1749
4.64,7.539,35.0463
4.90,7.525,36.9244
5.16,7.515,38.8156
5.42,7.505,40.7016
5.68,7.495,42.5821
5.93,7.484,44.4572
6.19,7.474,46.3246
6.45,7.460,48.1662
6.71,7.443,49.9806
6.97,7.408,51.6562
7.23,7.375,53.3303
7.48,7.359,55.1135
7.74,7.346,56.9139
8.00,7.337,58.7372
8.26,7.330,60.5791
8.52,7.324,62.4177
8.78,7.317,64.2529
9.03,7.311,66.0874
9.29,7.308,67.9433
9.55,7.304,69.7973
9.81,7.301,71.6496
10.07,7.297,73.5000
10.32,7.294,75.3487
10.58,7.290,77.1955
10.84,7.287,79.0406
11.10,7.284,80.8838
11.36,7.281,82.7312
11.62,7.278,84.5799
11.87,7.275,86.4271
12.13,7.272,88.2730
12.39,7.270,90.1174
12.65,7.267,91.9604
12.91,7.264,93.8021
13.17,7.262,95.6423
13.42,7.259,97.4811
13.68,7.256,99.3186
13.94,7.253,101.1546
14.20,7.250,102.9732
14.46,7.245,104.7837
14.71,7.241,106.5919
14.97,7.237,108.3980
15.23,7.232,110.2019
15.49,7.228,112.0035
15.75,7.224,113.8029
16.01,7.219,115.5893
16.26,7.213,117.3653
16.52,7.208,119.1385
16.78,7.203,120.9089
17.04,7.197,122.6764
17.30,7.192,124.4412
17.56,7.181,126.1073
17.81,7.169,127.7540
18.07,7.155,129.3453
18.33,7.125,130.6378
18.59,7.070,131.4690
18.85,6.993,131.8299
19.10,6.898,131.8203
19.36,6.764,131.0112
19.62,6.630,130.1271
19.88,6.520,129.6473
20.14,6.352,127.9537
20.40,6.200,126.4927
20.65,5.993,123.8172
20.91,5.800,121.3272
21.17,5.614,118.9009
21.43,5.408,115.9292
21.69,5.117,111.0022
21.95,4.855,106.5727
22.20,4.554,101.1388
22.46,4.395,98.7490
22.72,4.372,99.3614
22.98,4.349,99.9619
23.24,4.326,100.5506
23.49,4.319,101.5010
23.75,4.315,102.5327
24.01,4.312,103.5626
24.27,4.308,104.5907
24.53,4.305,105.6169
24.79,4.301,106.6413
25.04,4.298,107.6639
25.30,4.294,108.6847
25.56,4.291,109.7037
25.82,4.287,110.7208
26.08,4.283,111.7361
26.34,4.280,112.7496
26.59,4.276,113.7613
26.85,4.273,114.7712
27.11,4.269,115.7792
27.37,4.266,116.7855
27.63,4.262,117.7899
27.88,4.259,118.7925
28.14,4.255,119.7932
28.40,4.252,120.7922
28.66,4.248,121.7893
28.92,4.245,122.7846
29.18,4.241,123.7781
29.43,4.238,124.7698
29.69,4.234,125.7596
29.95,4.229,126.7068
30.21,4.222,127.5850
30.47,4.215,128.4596
30.73,4.208,129.3305
30.98,4.201,130.1978
31.24,4.194,131.0614
31.50,4.187,131.9213
31.76,4.180,132.7776
32.02,4.173,133.6302
32.28,4.166,134.4791
32.53,4.158,135.3244
32.79,4.151,136.1661
33.05,4.144,137.0040
33.31,4.114,137.0559
33.57,4.056,136.1971
33.82,3.983,134.7733
34.08,3.886,132.4700
34.34,3.761,129.2030
34.60,3.597,124.4988
34.86,3.429,119.5671
35.12,3.250,114.1618
35.37,3.046,107.7829
35.63,2.784,99.2399
35.89,2.574,92.4006
36.15,2.302,83.2534
36.41,2.090,76.1063
36.67,1.852,67.9373
36.92,1.652,61.0397
37.18,1.387,51.6059
37.44,1.166,43.6644
37.70,0.944,35.6006
37.96,0.727,27.6152
38.21,0.468,17.9195
38.47,0.235,9.0463

Sample No.,36
Date & Time,'2021-12-30 14:12:07
Data Type,OPC
Voc (V),38.44
Isc (A),8.143
Pmax (W),127.4122
Vpm (V),32.95
Ipm (A),3.866
EFF (%),6.554
FF,0.407
Tc (degC),14.4
Irr (W/m2),684
Nms,1
Rs (Ohm),1.0410
V (V),I (A),P (W)
0.25,8.102,2.0764
0.51,8.061,4.1318
0.76,8.019,6.1662
1.02,7.979,8.1796
1.28,7.938,10.1721
1.53,7.897,12.1434
1.79,7.856,14.0939
2.05,7.815,16.0232
2.30,7.774,17.9316
2.56,7.733,19.8188
2.81,7.692,21.6852
3.07,7.651,23.5305
3.33,7.610,25.3551
3.58,7.569,27.1583
3.84,7.528,28.9403
4.10,7.244,29.7075
4.35,7.224,31.4777
4.61,7.208,33.2551
4.86,7.200,35.0614
5.12,7.191,36.8633
5.38,7.183,38.6609
5.63,7.174,40.4494
5.89,7.164,42.2317
6.15,7.154,44.0092
6.40,7.139,45.7467
6.66,7.123,47.4641
6.91,7.092,49.0799
7.17,7.036,50.4964
7.43,6.973,51.8309
7.68,6.897,53.0323
7.94,6.884,54.6962
8.20,6.657,54.5993
8.45,6.634,56.1137
8.71,6.547,57.0528
8.97,5.943,53.3164
9.22,5.915,54.5775
9.48,5.078,48.1614
9.73,5.069,49.3761
9.99,5.061,50.5862
10.25,5.052,51.7918
10.50,5.043,52.9928
10.76,5.034,54.1892
11.02,5.025,55.3810
11.27,5.016,56.5683
11.53,5.013,57.8171
11.78,5.010,59.0742
12.04,5.008,60.3300
12.30,5.006,61.5846
12.55,5.003,62.8380
12.81,5.001,64.0901
13.07,4.999,65.3411
13.32,4.996,66.5909
13.58,4.994,67.8394
13.83,4.992,69.0868
14.09,4.989,70.3329
14.35,4.987,71.5778
14.60,4.984,72.8215
14.86,4.982,74.0641
15.12,4.980,75.3054
15.37,4.977,76.5454
15.63,4.975,77.7843
15.88,4.973,79.0220
16.14,4.970,80.2585
16.40,4.968,81.4937
16.65,4.966,82.7278
16.91,4.963,83.9606
17.17,4.961,85.1922
17.42,4.958,86.4226
17.68,4.956,87.6518
17.94,4.954,88.8798
18.19,4.951,90.1066
18.45,4.949,91.3322
18.70,4.947,92.5566
18.96,4.944,93.7798
19.22,4.936,94.8865
19.47,4.920,95.8373
19.73,4.904,96.7798
19.99,4.888,97.7141
20.24,4.871,98.6400
20.50,4.804,98.5099
20.75,4.697,97.5129
21.01,4.581,96.2745
21.27,4.390,93.3899
21.52,4.233,91.1447
21.78,4.135,90.0813
22.04,4.128,90.9891
22.29,4.121,91.8934
22.55,4.114,92.7941
22.80,4.107,93.6913
23.06,4.100,94.5850
23.32,4.093,95.4751
23.57,4.086,96.3617
23.83,4.079,97.2448
24.09,4.073,98.1243
24.34,4.066,99.0003
24.60,4.059,99.8728
24.85,4.052,100.7417
25.11,4.048,101.6796
25.37,4.045,102.6325
25.62,4.041,103.5835
25.88,4.038,104.5329
26.14,4.035,105.4806
26.39,4.031,106.4266
26.65,4.028,107.3708
26.91,4.025,108.3134
27.16,4.021,109.2542
27.42,4.018,110.1933
27.67,4.014,111.1307
27.93,4.011,112.0664
28.19,4.008,113.0004
28.44,4.004,113.9326
28.70,4.001,114.8632
28.96,3.998,115.7920
29.21,3.994,116.7191
29.47,3.991,117.6446
29.72,3.988,118.5683
29.98,3.984,119.4903
30.24,3.981,120.4105
30.49,3.978,121.3291
30.75,3.974,122.2460
31.01,3.971,123.1611
31.26,3.968,124.0745
31.52,3.964,124.9863
31.77,3.961,125.8963
32.03,3.948,126.5050
32.29,3.925,126.7739
32.54,3.902,127.0311
32.80,3.879,127.2765
33.06,3.838,126.9084
33.31,3.772,125.6998
33.57,3.673,123.3347
33.82,3.553,120.2273
34.08,3.420,116.6033
34.34,3.262,112.0444
34.59,3.119,107.9336
34.85,3.008,104.8561
35.11,2.825,99.1938
35.36,2.660,94.0891
35.62,2.491,88.7721
35.88,2.325,83.4386
36.13,2.120,76.6157
36.39,1.913,69.6377
36.64,1.725,63.2488
36.90,1.488,54.9514
37.16,1.246,46.3088
37.41,1.017,38.0666
37.67,0.778,29.3177
37.93,0.517,19.6144
38.18,0.274,10.4684

Sample No.,37
Date & Time,'2021-12-30 14:12:25
Data Type,OPC
Voc (V),38.45
Isc (A),8.475
Pmax (W),128.5097
Vpm (V),32.73
Ipm (A),3.925
EFF (%),6.610
FF,0.394
Tc (degC),14.4
Irr (W/m2),67
Nms,1
Rs (Ohm),0.9441
V (V),I (A),P (W)
0.25,8.415,2.1573
0.51,8.355,4.2842
0.76,8.296,6.3807
1.02,8.237,8.4466
1.28,8.177,10.4821
1.53,8.118,12.4870
1.79,8.058,14.4617
2.05,7.999,16.4058
2.30,7.939,18.3194
2.56,7.880,20.2023
2.81,7.820,22.0548
3.07,7.761,23.8775
3.33,7.702,25.6692
3.58,7.642,27.4303
3.84,7.582,29.1588
4.10,7.284,29.8794
4.35,7.255,31.6197
4.61,7.242,33.4214
4.87,7.230,35.2166
5.12,7.218,37.0131
5.38,7.209,38.8130
5.63,7.200,40.6081
5.89,7.190,42.3984
6.15,7.175,44.1511
6.40,7.160,45.8893
6.66,7.135,47.5577
6.92,7.087,49.0601
7.17,7.036,50.5069
7.43,6.918,51.4317
7.69,6.867,52.8147
7.94,6.650,52.8511
8.20,6.643,54.4973
8.45,6.636,56.1398
8.71,6.502,56.6763
8.97,5.448,48.8866
9.22,5.368,49.5458
9.48,5.126,48.6230
9.74,5.101,49.6959
9.99,5.076,50.7562
10.25,5.066,51.9554
10.51,5.063,53.2225
10.76,5.060,54.4881
11.02,5.057,55.7521
11.27,5.054,57.0146
11.53,5.051,58.2756
11.79,5.048,59.5350
12.04,5.045,60.7928
12.30,5.042,62.0491
12.56,5.039,63.3039
12.81,5.036,64.5571
13.07,5.033,65.8088
13.33,5.030,67.0589
13.58,5.027,68.3074
13.84,5.024,69.5544
14.09,5.021,70.7999
14.35,5.018,72.0438
14.61,5.015,73.2862
14.86,5.012,74.5270
15.12,5.009,75.7663
15.38,5.006,77.0040
15.63,5.003,78.2402
15.89,5.000,79.4748
16.15,4.997,80.7079
16.40,4.994,81.9394
16.66,4.991,83.1694
16.91,4.985,84.3549
17.17,4.979,85.5338
17.43,4.974,86.7098
17.68,4.968,87.8828
17.94,4.962,89.0528
18.20,4.956,90.2198
18.45,4.950,91.3839
18.71,4.945,92.5451
18.97,4.939,93.7033
19.22,4.933,94.8585
19.48,4.927,96.0107
19.73,4.922,97.1600
19.99,4.916,98.3064
20.25,4.901,99.2622
20.50,4.846,99.3950
20.76,4.734,98.3140
21.02,4.602,96.7613
21.27,4.416,93.9794
21.53,4.213,90.7445
21.79,4.191,91.3307
22.04,4.168,91.9052
22.30,4.145,92.4682
22.55,4.123,93.0194
22.81,4.117,93.9547
23.07,4.114,94.9272
23.32,4.110,95.8978
23.58,4.107,96.8666
23.84,4.103,97.8336
24.09,4.099,98.7987
24.35,4.096,99.7620
24.61,4.092,100.7234
24.86,4.089,101.6830
25.12,4.085,102.6407
25.37,4.081,103.5966
25.63,4.078,104.5506
25.89,4.074,105.5028
26.14,4.071,106.4531
26.40,4.067,107.4016
26.66,4.063,108.3482
26.91,4.060,109.2930
27.17,4.056,110.2360
27.43,4.053,111.1770
27.68,4.049,112.1163
27.94,4.045,113.0537
28.19,4.042,113.9892
28.45,4.038,114.9229
28.71,4.035,115.8548
28.96,4.031,116.7848
29.22,4.027,117.7129
29.48,4.024,118.6392
29.73,4.016,119.4399
29.99,4.008,120.2362
30.25,4.000,121.0285
30.50,3.993,121.8169
30.76,3.985,122.6012
31.01,3.977,123.3816
31.27,3.969,124.1580
31.53,3.961,124.9304
31.78,3.954,125.6988
32.04,3.946,126.4632
32.30,3.938,127.2237
32.55,3.930,127.9801
32.81,3.906,128.1940
33.07,3.843,127.1091
33.32,3.774,125.7859
33.58,3.696,124.1422
33.83,3.596,121.7074
34.09,3.466,118.2052
34.35,3.351,115.1475
34.60,3.218,111.3857
34.86,3.042,106.0937
35.12,2.879,101.1295
35.37,2.719,96.2036
35.63,2.561,91.2804
35.89,2.371,85.1138
36.14,2.158,78.0304
36.40,1.972,71.8033
36.65,1.769,64.8671
36.91,1.528,56.4131
37.17,1.299,48.3115
37.42,1.070,40.0807
37.68,0.795,29.9652
37.94,0.520,19.7363
38.19,0.283,10.8112

Sample No.,38
Date & Time,'2021-12-30 14:12:45
Data Type,OPC
Voc (V),38.46
Isc (A),8.340
Pmax (W),128.9592
Vpm (V),32.56
Ipm (A),3.960
EFF (%),6.633
FF,0.401
Tc (degC),14.6
Irr (W/m2),692
Nms,1
Rs (Ohm),0.9577
V (V),I (A),P (W)
0.25,8.293,2.1267
0.51,8.247,4.2297
0.76,8.201,6.3089
1.02,8.154,8.3643
1.28,8.108,10.3959
1.53,8.062,12.4039
1.79,8.015,14.3881
2.05,7.969,16.3482
2.30,7.923,18.2850
2.56,7.876,20.1978
2.82,7.830,22.0869
3.07,7.784,23.9520
3.33,7.737,25.7936
3.58,7.691,27.6115
3.84,7.645,29.4053
4.10,7.334,30.0901
4.35,7.298,31.8139
4.61,7.283,33.6157
4.87,7.268,35.4118
5.12,7.258,37.2243
5.38,7.248,39.0334
5.64,7.239,40.8375
5.89,7.226,42.6203
6.15,7.213,44.3916
6.41,7.195,46.1278
6.66,7.170,47.8043
6.92,7.123,49.3181
7.17,7.071,50.7751
7.43,6.942,51.6292
7.69,6.915,53.1998
7.94,6.896,54.8207
8.20,6.579,53.9897
8.46,6.537,55.3210
8.71,6.445,56.1973
8.97,5.879,52.7678
9.23,5.258,48.5457
9.48,5.129,48.6666
9.74,5.119,49.8835
10.00,5.109,51.0953
10.25,5.099,52.3018
10.51,5.089,53.5032
10.76,5.079,54.6994
11.02,5.068,55.8905
11.28,5.062,57.1122
11.53,5.059,58.3789
11.79,5.056,59.6442
12.05,5.053,60.9080
12.30,5.051,62.1705
12.56,5.048,63.4316
12.82,5.045,64.6913
13.07,5.043,65.9497
13.33,5.040,67.2066
13.59,5.037,68.4621
13.84,5.034,69.7162
14.10,5.032,70.9690
14.35,5.029,72.2203
14.61,5.026,73.4703
14.87,5.024,74.7189
15.12,5.021,75.9660
15.38,5.018,77.2118
15.64,5.015,78.4562
15.89,5.013,79.6992
16.15,5.010,80.9408
16.41,5.007,82.1810
16.66,5.005,83.4198
16.92,5.002,84.6573
17.18,4.999,85.8933
17.43,4.996,87.1279
17.69,4.994,88.3612
17.94,4.991,89.5930
18.20,4.988,90.8235
18.46,4.980,91.9564
18.71,4.971,93.0628
18.97,4.962,94.1644
19.23,4.953,95.2614
19.48,4.944,96.3537
19.74,4.935,97.4413
20.00,4.926,98.5242
20.25,4.916,99.6024
20.51,4.883,100.1682
20.77,4.797,99.6498
21.02,4.666,98.1134
21.28,4.504,95.8667
21.53,4.314,92.9265
21.79,4.223,92.0449
22.05,4.196,92.5510
22.30,4.170,93.0437
22.56,4.148,93.6115
22.82,4.144,94.5891
23.07,4.140,95.5647
23.33,4.137,96.5384
23.59,4.133,97.5102
23.84,4.129,98.4800
24.10,4.125,99.4479
24.35,4.122,100.4138
24.61,4.118,101.3778
24.87,4.114,102.3399
25.12,4.110,103.3000
25.38,4.106,104.2582
25.64,4.103,105.2144
25.89,4.099,106.1687
26.15,4.095,107.1211
26.41,4.091,108.0716
26.66,4.088,109.0201
26.92,4.084,109.9666
27.18,4.080,110.9113
27.43,4.076,111.8540
27.69,4.072,112.7947
27.94,4.069,113.7335
28.20,4.065,114.6704
28.46,4.061,115.6054
28.71,4.057,116.5384
28.97,4.052,117.4346
29.23,4.046,118.2804
29.48,4.039,119.1228
29.74,4.033,119.9617
30.00,4.026,120.7973
30.25,4.019,121.6295
30.51,4.013,122.4583
30.77,4.006,123.2837
31.02,3.999,124.1057
31.28,3.993,124.9243
31.53,3.986,125.7396
31.79,3.980,126.5514
32.05,3.973,127.3598
32.30,3.966,128.1649
32.56,3.959,128.9569
32.82,3.921,128.6948
33.07,3.882,128.4127
33.33,3.807,126.9241
33.59,3.714,124.7787
33.84,3.611,122.2433
34.10,3.488,118.9646
34.36,3.357,115.3744
34.61,3.249,112.4928
34.87,3.064,106.8613
35.12,2.896,101.7406
35.38,2.700,95.5499
35.64,2.543,90.6477
35.89,2.358,84.6685
36.15,2.162,78.1865
36.41,1.958,71.3091
36.66,1.726,63.2966
36.92,1.528,56.4461
37.18,1.282,47.6950
37.43,1.041,38.9996
37.69,0.796,30.0260
37.95,0.533,20.2309
38.20,0.258,9.8908

Sample No.,39
Date & Time,'2021-12-30 14:13:05
Data Type,OPC
Voc (V),38.46
Isc (A),8.334
Pmax (W),129.8416
Vpm (V),32.80
Ipm (A),3.957
EFF (%),6.679
FF,0.405
Tc (degC),14.7
Irr (W/m2),65
Nms,1
Rs (Ohm),1.1236
V (V),I (A),P (W)
0.25,8.289,2.1253
0.51,8.244,4.2277
0.76,8.199,6.3071
1.02,8.154,8.3634
1.28,8.109,10.3967
1.53,8.064,12.4069
1.79,8.020,14.3943
2.05,7.975,16.3584
2.30,7.930,18.2996
2.56,7.885,20.2178
2.82,7.840,22.1130
3.07,7.795,23.9849
3.33,7.750,25.8340
3.58,7.705,27.6602
3.84,7.660,29.4630
4.10,7.389,30.3149
4.35,7.335,31.9751
4.61,7.315,33.7642
4.87,7.303,35.5810
5.12,7.291,37.3922
5.38,7.282,39.2122
5.64,7.273,41.0276
5.89,7.264,42.8382
6.15,7.250,44.6188
6.41,7.236,46.3854
6.66,7.215,48.0987
6.92,7.181,49.7163
7.17,7.124,51.1457
7.43,7.065,52.5388
7.69,6.952,53.4757
7.94,6.899,54.8394
8.20,6.698,54.9581
8.46,6.688,56.5893
8.71,6.671,58.1629
8.97,6.655,59.7283
9.23,6.139,56.6729
9.48,5.127,48.6391
9.74,5.121,49.9036
9.99,5.116,51.1653
10.25,5.111,52.4244
10.51,5.106,53.6809
10.76,5.101,54.9348
11.02,5.096,56.1860
11.28,5.090,57.4345
11.53,5.085,58.6805
11.79,5.080,59.9237
12.05,5.075,61.1644
12.30,5.070,62.4024
12.56,5.065,63.6377
12.82,5.060,64.8705
13.07,5.056,66.1235
13.33,5.053,67.3772
13.58,5.050,68.6294
13.84,5.047,69.8799
14.10,5.043,71.1287
14.35,5.040,72.3759
14.61,5.037,73.6215
14.87,5.034,74.8654
15.12,5.031,76.1076
15.38,5.027,77.3483
15.64,5.024,78.5872
15.89,5.021,79.8246
16.15,5.018,81.0603
16.40,5.015,82.2943
16.66,5.011,83.5267
16.92,5.008,84.7575
17.17,5.005,85.9866
17.43,5.002,87.2140
17.69,4.998,88.4399
17.94,4.995,89.6640
18.20,4.992,90.8866
18.46,4.989,92.1074
18.71,4.986,93.3267
18.97,4.977,94.4480
19.23,4.964,95.4741
19.48,4.951,96.4934
19.74,4.938,97.5061
19.99,4.925,98.5121
20.25,4.912,99.5115
20.51,4.860,99.7067
20.76,4.759,98.8520
21.02,4.631,97.3806
21.28,4.475,95.2485
21.53,4.300,92.6177
21.79,4.222,92.0258
22.05,4.203,92.6915
22.30,4.184,93.3475
22.56,4.165,93.9938
22.81,4.146,94.6304
23.07,4.142,95.6031
23.33,4.139,96.5870
23.58,4.136,97.5693
23.84,4.132,98.5498
24.10,4.129,99.5286
24.35,4.126,100.5057
24.61,4.122,101.4811
24.87,4.119,102.4547
25.12,4.116,103.4266
25.38,4.112,104.3968
25.64,4.109,105.3653
25.89,4.106,106.3321
26.15,4.102,107.2971
26.40,4.099,108.2604
26.66,4.095,109.2220
26.92,4.092,110.1819
27.17,4.089,111.1401
27.43,4.085,112.0965
27.69,4.082,113.0512
27.94,4.079,114.0042
28.20,4.075,114.9555
28.46,4.072,115.9050
28.71,4.069,116.8529
28.97,4.065,117.7990
29.22,4.062,118.7434
29.48,4.059,119.6860
29.74,4.055,120.6270
29.99,4.051,121.5461
30.25,4.043,122.3249
30.51,4.034,123.0993
30.76,4.025,123.8693
31.02,4.017,124.6349
31.28,4.008,125.3961
31.53,4.000,126.1529
31.79,3.991,126.9053
32.05,3.982,127.6533
32.30,3.974,128.3968
32.56,3.965,129.1360
32.81,3.954,129.7915
33.07,3.885,128.5133
33.33,3.803,126.7637
33.58,3.711,124.6701
33.84,3.609,122.1653
34.10,3.486,118.9008
34.35,3.231,111.0286
34.61,3.155,109.2368
34.87,3.003,104.7359
35.12,2.800,98.3733
35.38,2.604,92.1644
35.63,2.423,86.3703
35.89,2.220,79.7241
36.15,2.035,73.5814
36.40,1.866,67.9602
36.66,1.653,60.6258
36.92,1.450,53.5642
37.17,1.210,45.0189
37.43,0.975,36.5146
37.69,0.736,27.7497
37.94,0.525,19.9442
38.20,0.268,10.2499

Sample No.,40
Date & Time,'2021-12-30 14:21:38
Data Type,OPC
Voc (V),38.28
Isc (A),7.819
Pmax (W),86.6883
Vpm (V),34.84
Ipm (A),2.487
EFF (%),4.459
FF,0.289
Tc (degC),15.0
Irr (W/m2),665
Nms,1
Rs (Ohm),3.4146
V (V),I (A),P (W)
0.25,7.781,1.9859
0.51,7.744,3.9527
0.76,7.706,5.9003
1.02,7.669,7.8287
1.27,7.631,9.7379
1.53,7.593,11.6277
1.78,7.556,13.4986
2.04,7.518,15.3500
2.29,7.480,17.1824
2.55,7.443,18.9956
2.80,7.405,20.7897
3.06,7.367,22.5642
3.31,7.330,24.3199
3.57,7.292,26.0562
3.82,7.255,27.7732
4.08,7.009,28.6221
4.33,6.981,30.2909
4.59,6.967,32.0067
4.84,6.957,33.7356
5.10,6.947,35.4608
5.35,6.939,37.1916
5.61,6.931,38.9185
5.86,6.923,40.6413
6.12,6.913,42.3461
6.38,6.903,44.0426
6.63,6.889,45.7137
6.89,6.870,47.3387
7.14,6.710,47.9499
7.40,6.691,49.5242
7.65,6.670,51.0704
7.91,6.651,52.6236
8.16,6.633,54.1742
8.42,6.603,55.6175
8.67,6.572,57.0256
8.93,6.432,57.4550
9.18,6.128,56.3045
9.44,6.125,57.8375
9.69,6.121,59.3688
9.95,6.118,60.8984
10.20,6.105,62.3294
10.46,6.087,63.6921
10.71,3.972,42.5797
10.97,3.967,43.5425
11.22,3.963,44.5031
11.48,3.958,45.4612
11.73,3.953,46.4170
11.99,3.949,47.3704
12.24,3.944,48.3214
12.50,3.939,49.2701
12.76,3.935,50.2164
13.01,3.930,51.1603
13.27,3.926,52.1019
13.52,3.921,53.0410
13.78,3.916,53.9779
14.03,3.912,54.9123
14.29,3.907,55.8444
14.54,3.902,56.7741
14.80,3.898,57.7015
15.05,3.893,58.6265
15.31,3.888,59.5476
15.56,3.883,60.4621
15.82,3.878,61.3739
16.07,3.873,62.2833
16.33,3.868,63.1900
16.58,3.863,64.0942
16.84,3.858,64.9958
17.09,3.853,65.8949
17.35,3.848,66.7914
17.60,3.843,67.6854
17.86,3.838,68.5768
18.11,3.833,69.4656
18.37,3.828,70.3519
18.63,3.823,71.2356
18.88,3.818,72.1168
19.14,3.813,72.9954
19.39,3.808,73.8715
19.65,3.803,74.7450
19.90,3.790,75.4477
20.16,3.774,76.0934
20.41,3.758,76.7310
20.67,3.742,77.3604
20.92,3.726,77.9817
21.18,3.703,78.4412
21.43,3.642,78.0801
21.69,3.551,77.0508
21.94,3.433,75.3539
22.20,3.298,73.2301
22.45,3.139,70.5177
22.71,2.958,67.2046
22.96,2.810,64.5626
23.22,2.781,64.6023
23.47,2.752,64.6271
23.73,2.723,64.6369
23.98,2.711,65.0380
24.24,2.708,65.6557
24.49,2.704,66.2718
24.75,2.701,66.8863
25.01,2.698,67.4992
25.26,2.695,68.1106
25.52,2.692,68.7204
25.77,2.689,69.3287
26.03,2.686,69.9354
26.28,2.683,70.5405
26.54,2.680,71.1441
26.79,2.677,71.7461
27.05,2.674,72.3466
27.30,2.671,72.9454
27.56,2.668,73.5428
27.81,2.665,74.1385
28.07,2.662,74.7327
28.32,2.659,75.3253
28.58,2.655,75.9164
28.83,2.652,76.5059
29.09,2.649,77.0938
29.34,2.646,77.6802
29.60,2.643,78.2650
29.85,2.640,78.8483
30.11,2.637,79.4300
30.36,2.634,80.0101
30.62,2.631,80.5886
30.88,2.628,81.1656
31.13,2.625,81.7411
31.39,2.622,82.3149
31.64,2.619,82.8872
31.90,2.616,83.4580
32.15,2.613,84.0272
32.41,2.610,84.5948
32.66,2.606,85.1608
32.92,2.603,85.7253
33.17,2.597,86.1779
33.43,2.580,86.2797
33.68,2.563,86.3730
33.94,2.547,86.4577
34.19,2.530,86.5338
34.45,2.513,86.6014
34.70,2.496,86.6604
34.96,2.442,85.3948
35.21,2.339,82.3985
35.47,2.217,78.6661
35.72,2.064,73.7511
35.98,1.897,68.2691
36.23,1.729,62.6857
36.49,1.567,57.1980
36.74,1.360,50.0130
37.00,1.163,43.0565
37.26,0.940,35.0434
37.51,0.719,26.9828
37.77,0.473,17.8659
38.02,0.245,9.3225

Sample No.,41
Date & Time,'2021-12-30 14:21:57
Data Type,OPC
Voc (V),38.25
Isc (A),7.732
Pmax (W),85.4388
Vpm (V),34.72
Ipm (A),2.460
EFF (%),4.395
FF,0.288
Tc (degC),-0.1
Irr (W/m2),-----
Nms,1
Rs (Ohm),1.1027
V (V),I (A),P (W)
0.25,7.695,1.9626
0.51,7.658,3.9064
0.76,7.621,5.8314
1.02,7.584,7.7375
1.27,7.547,9.6247
1.53,7.510,11.4931
1.78,7.473,13.3427
2.04,7.436,15.1735
2.29,7.399,16.9851
2.55,7.362,18.7782
2.80,7.325,20.5522
3.06,7.288,22.3075
3.31,7.251,24.0441
3.57,7.215,25.7616
3.82,7.175,27.4523
4.08,6.920,28.2384
4.33,6.899,29.9135
4.59,6.887,31.6179
4.84,6.876,33.3239
5.10,6.867,35.0297
5.35,6.859,36.7377
5.61,6.851,38.4416
5.86,6.842,40.1369
6.12,6.831,41.8164
6.37,6.820,43.4904
6.63,6.800,45.0935
6.88,6.768,46.6065
7.14,6.713,47.9404
7.39,6.618,48.9538
7.65,6.607,50.5562
7.90,6.596,52.1529
8.16,6.576,53.6720
8.41,6.428,54.1015
8.67,6.419,55.6667
8.92,6.411,57.2289
9.18,6.402,58.7867
9.43,6.394,60.3403
9.69,6.336,61.4123
9.94,6.335,63.0169
10.20,6.334,64.6208
10.45,6.333,66.2241
10.71,6.332,67.8269
10.96,6.330,69.4291
11.22,6.329,71.0306
11.47,6.328,72.6316
11.73,6.327,74.2320
11.98,6.326,75.8318
12.24,6.325,77.4310
12.49,6.323,79.0296
12.75,6.322,80.6276
13.00,3.849,50.0715
13.26,3.844,50.9809
13.51,3.839,51.9007
13.77,3.835,52.8183
14.02,3.830,53.7336
14.28,3.826,54.6466
14.53,3.821,55.5574
14.79,3.817,56.4658
15.04,3.812,57.3720
15.30,3.808,58.2759
15.55,3.803,59.1775
15.81,3.799,60.0768
16.06,3.794,60.9738
16.32,3.790,61.8686
16.57,3.785,62.7610
16.83,3.781,63.6512
17.08,3.776,64.5391
17.34,3.772,65.4247
17.59,3.767,66.3080
17.85,3.763,67.1890
18.10,3.757,68.0475
18.36,3.749,68.8451
18.61,3.740,69.6382
18.87,3.731,70.4268
19.12,3.722,71.2110
19.38,3.714,71.9907
19.63,3.705,72.7660
19.89,3.696,73.5367
20.14,3.687,74.3030
20.40,3.679,75.0649
20.65,3.665,75.7305
20.91,3.628,75.8932
21.16,3.592,76.0370
21.42,3.512,75.2531
21.67,3.390,73.4955
21.93,3.261,71.5272
22.18,3.136,69.6047
22.44,2.965,66.5503
22.69,2.778,63.0587
22.95,2.712,62.2547
23.20,2.680,62.2211
23.46,2.677,62.8224
23.71,2.673,63.4219
23.97,2.670,64.0196
24.22,2.666,64.6155
24.48,2.663,65.2096
24.73,2.659,65.8019
24.99,2.656,66.3924
25.24,2.652,66.9811
25.50,2.649,67.5680
25.75,2.645,68.1532
26.01,2.642,68.7365
26.26,2.638,69.3181
26.52,2.635,69.8978
26.77,2.631,70.4758
27.03,2.628,71.0520
27.28,2.624,71.6264
27.54,2.621,72.1990
27.79,2.617,72.7698
28.05,2.614,73.3388
28.30,2.610,73.9060
28.56,2.607,74.4714
28.81,2.603,75.0350
29.07,2.600,75.5968
29.32,2.596,76.1569
29.58,2.593,76.7151
29.83,2.589,77.2716
30.09,2.586,77.8262
30.34,2.582,78.3791
30.60,2.579,78.9302
30.85,2.575,79.4795
31.11,2.571,79.9997
31.36,2.563,80.4100
31.62,2.555,80.8163
31.88,2.547,81.2186
32.13,2.539,81.6169
32.39,2.531,82.0113
32.64,2.524,82.4016
32.90,2.516,82.7880
33.15,2.508,83.1704
33.41,2.500,83.5487
33.66,2.492,83.9231
33.92,2.485,84.2935
34.17,2.477,84.6599
34.43,2.469,85.0223
34.68,2.461,85.3808
34.94,2.383,83.2904
35.19,2.274,80.0459
35.45,2.133,75.6442
35.70,1.978,70.6508
35.96,1.837,66.0785
36.21,1.693,61.3236
36.47,1.509,55.0607
36.72,1.310,48.1161
36.98,1.136,42.0408
37.23,0.933,34.7503
37.49,0.694,26.0512
37.74,0.463,17.5006
38.00,0.244,9.2864

Sample No.,42
Date & Time,'2021-12-30 14:22:26
Data Type,OPC
Voc (V),38.22
Isc (A),7.624
Pmax (W),83.8546
Vpm (V),34.56
Ipm (A),2.426
EFF (%),4.313
FF,0.287
Tc (degC),13.6
Irr (W/m2),62
Nms,1
Rs (Ohm),1.1673
V (V),I (A),P (W)
0.25,7.589,1.9342
0.50,7.554,3.8505
0.76,7.519,5.7488
1.01,7.483,7.6292
1.27,7.448,9.4915
1.52,7.413,11.3359
1.78,7.377,13.1624
2.03,7.342,14.9708
2.29,7.307,16.7614
2.54,7.272,18.5337
2.80,7.236,20.2884
3.05,7.201,22.0251
3.31,7.166,23.7436
3.56,7.131,25.4441
3.82,7.090,27.1070
4.07,6.837,27.8829
4.33,6.819,29.5454
4.58,6.805,31.2218
4.84,6.795,32.9057
5.09,6.787,34.5962
5.35,6.779,36.2826
5.60,6.769,37.9574
5.86,6.759,39.6203
6.11,6.747,41.2730
6.37,6.732,42.8929
6.62,6.713,44.4889
6.88,6.691,46.0472
7.13,6.610,47.1753
7.39,6.579,48.6303
7.64,6.562,50.1792
7.90,6.550,51.7546
8.15,6.539,53.3370
8.41,6.529,54.9139
8.66,6.436,55.7746
8.92,6.247,55.7243
9.17,6.245,57.3027
9.42,6.244,58.8804
9.68,6.242,60.4573
9.93,6.241,62.0335
10.19,6.239,63.6089
10.44,6.238,65.1835
10.70,6.236,66.7574
10.95,6.235,68.3305
11.21,3.806,42.6870
11.46,3.792,43.4960
11.72,3.787,44.4027
11.97,3.782,45.3069
12.23,3.777,46.2084
12.48,3.772,47.1074
12.74,3.767,48.0037
12.99,3.761,48.8975
13.25,3.756,49.7886
13.50,3.751,50.6771
13.76,3.746,51.5631
14.01,3.741,52.4464
14.27,3.736,53.3272
14.52,3.731,54.2053
14.78,3.726,55.0808
15.03,3.721,55.9538
15.29,3.716,56.8241
15.54,3.710,57.6918
15.80,3.705,58.5553
16.05,3.700,59.4132
16.31,3.694,60.2683
16.56,3.689,61.1206
16.82,3.684,61.9702
17.07,3.678,62.8171
17.33,3.673,63.6612
17.58,3.667,64.5025
17.84,3.662,65.3412
18.09,3.657,66.1770
18.34,3.651,67.0101
18.60,3.646,67.8405
18.85,3.641,68.6681
19.11,3.635,69.4930
19.36,3.630,70.3151
19.62,3.624,71.1345
19.87,3.617,71.9126
20.13,3.602,72.5278
20.38,3.587,73.1352
20.64,3.571,73.7349
20.89,3.556,74.3268
21.15,3.541,74.9109
21.40,3.499,74.9183
21.66,3.405,73.7638
21.91,3.281,71.9138
22.17,3.128,69.3693
22.42,2.965,66.5179
22.68,2.760,62.6168
22.93,2.695,61.8208
23.19,2.644,61.3332
23.44,2.638,61.8636
23.70,2.632,62.3909
23.95,2.626,62.9151
24.21,2.620,63.4361
24.46,2.613,63.9540
24.72,2.607,64.4688
24.97,2.601,64.9805
25.23,2.595,65.4891
25.48,2.589,65.9945
25.74,2.583,66.4968
25.99,2.577,66.9960
26.25,2.571,67.4921
26.50,2.564,67.9851
26.76,2.558,68.4749
27.01,2.552,68.9616
27.27,2.546,69.4452
27.52,2.540,69.9257
27.77,2.535,70.4257
28.03,2.531,70.9569
28.28,2.526,71.4859
28.54,2.522,72.0129
28.79,2.518,72.5378
29.05,2.514,73.0607
29.30,2.510,73.5814
29.56,2.506,74.1000
29.81,2.502,74.6166
30.07,2.498,75.1310
30.32,2.494,75.6434
30.58,2.490,76.1537
30.83,2.485,76.6619
31.09,2.481,77.1680
31.34,2.477,77.6720
31.60,2.473,78.1739
31.85,2.469,78.6737
32.11,2.465,79.1715
32.36,2.461,79.6671
32.62,2.457,80.1607
32.87,2.453,80.6521
33.13,2.449,81.1415
33.38,2.444,81.6288
33.64,2.440,82.1140
33.89,2.436,82.5971
34.15,2.432,83.0782
34.40,2.428,83.5571
34.66,2.401,83.2421
34.91,2.336,81.5925
35.17,2.247,79.0499
35.42,2.128,75.3881
35.68,1.987,70.9052
35.93,1.841,66.1595
36.19,1.675,60.6211
36.44,1.527,55.6784
36.69,1.338,49.1237
36.95,1.145,42.3337
37.20,0.906,33.7474
37.46,0.697,26.1138
37.71,0.481,18.1726
37.97,0.253,9.6076

Sample No.,43
Date & Time,'2021-12-30 14:22:49
Data Type,OPC
Voc (V),38.22
Isc (A),7.487
Pmax (W),82.6361
Vpm (V),34.68
Ipm (A),2.382
EFF (%),4.250
FF,0.288
Tc (degC),13.5
Irr (W/m2),647
Nms,1
Rs (Ohm),1.1767
V (V),I (A),P (W)
0.25,7.455,1.8997
0.50,7.424,3.7834
0.76,7.392,5.6511
1.01,7.361,7.5026
1.27,7.329,9.3382
1.52,7.298,11.1578
1.78,7.266,12.9611
2.03,7.235,14.7485
2.29,7.203,16.5200
2.54,7.172,18.2751
2.80,7.140,20.0142
3.05,7.109,21.7374
3.31,7.077,23.4447
3.56,7.046,25.1356
3.82,7.012,26.8022
4.07,6.763,27.5759
4.33,6.743,29.2125
4.58,6.733,30.8831
4.84,6.723,32.5498
5.09,6.715,34.2213
5.35,6.707,35.8887
5.60,6.697,37.5471
5.86,6.686,39.1886
6.11,6.675,40.8224
6.37,6.662,42.4387
6.62,6.647,44.0369
6.87,6.628,45.6028
7.13,6.572,46.8913
7.38,6.550,48.4026
7.64,6.536,49.9679
7.89,6.298,49.7512
8.15,6.293,51.3192
8.40,6.289,52.8849
8.66,6.285,54.4571
8.91,6.282,56.0286
9.17,6.279,57.5984
9.42,6.275,59.1665
9.68,6.272,60.7328
9.93,6.268,62.2975
10.19,6.265,63.8604
10.44,6.262,65.4215
10.70,6.258,66.9810
10.95,3.764,41.2419
11.21,3.754,42.0897
11.46,3.744,42.9325
11.72,3.734,43.7701
11.97,3.724,44.6057
12.23,3.720,45.5029
12.48,3.716,46.3979
12.74,3.711,47.2908
12.99,3.707,48.1815
13.24,3.703,49.0700
13.50,3.699,49.9564
13.75,3.694,50.8407
14.01,3.690,51.7227
14.26,3.686,52.6027
14.52,3.682,53.4804
14.77,3.677,54.3560
15.03,3.673,55.2294
15.28,3.669,56.1007
15.54,3.665,56.9698
15.79,3.661,57.8368
16.05,3.656,58.7015
16.30,3.652,59.5642
16.56,3.648,60.4246
16.81,3.644,61.2829
17.07,3.639,62.1291
17.32,3.632,62.9434
17.58,3.626,63.7544
17.83,3.619,64.5620
18.09,3.613,65.3664
18.34,3.606,66.1673
18.60,3.600,66.9650
18.85,3.593,67.7594
19.11,3.587,68.5504
19.36,3.580,69.3381
19.62,3.574,70.1225
19.87,3.567,70.9035
20.12,3.560,71.6812
20.38,3.552,72.4180
20.63,3.530,72.8600
20.89,3.507,73.2905
21.14,3.485,73.7095
21.40,3.447,73.7849
21.65,3.349,72.5493
21.91,3.233,70.8671
22.16,3.100,68.7279
22.42,2.941,65.9683
22.67,2.782,63.0921
22.93,2.692,61.7469
23.18,2.674,62.0064
23.44,2.655,62.2566
23.69,2.637,62.4975
23.95,2.618,62.7289
24.20,2.600,62.9510
24.46,2.593,63.4516
24.71,2.589,64.0005
24.97,2.584,64.5471
25.22,2.580,65.0913
25.48,2.575,65.6332
25.73,2.571,66.1729
25.99,2.566,66.7102
26.24,2.562,67.2452
26.49,2.557,67.7779
26.75,2.553,68.3082
27.00,2.548,68.8363
27.26,2.544,69.3620
27.51,2.539,69.8855
27.77,2.534,70.4066
28.02,2.530,70.9254
28.28,2.525,71.4419
28.53,2.521,71.9561
28.79,2.516,72.4680
29.04,2.512,72.9776
29.30,2.507,73.4849
29.55,2.503,73.9898
29.81,2.498,74.4925
30.06,2.494,74.9928
30.32,2.489,75.4742
30.57,2.482,75.9177
30.83,2.476,76.3581
31.08,2.470,76.7953
31.34,2.464,77.2293
31.59,2.457,77.6601
31.85,2.451,78.0877
32.10,2.445,78.5122
32.36,2.439,78.9335
32.61,2.432,79.3516
32.87,2.426,79.7665
33.12,2.420,80.1782
33.37,2.414,80.5868
33.63,2.408,80.9922
33.88,2.401,81.3944
34.14,2.395,81.7934
34.39,2.389,82.1893
34.65,2.383,82.5819
34.90,2.312,80.7148
35.16,2.213,77.8481
35.41,2.091,74.0621
35.67,1.958,69.8814
35.92,1.789,64.2820
36.18,1.630,59.0085
36.43,1.481,53.9720
36.69,1.302,47.7741
36.94,1.110,41.0272
37.20,0.898,33.4229
37.45,0.691,25.8978
37.71,0.466,17.5980
37.96,0.241,9.1650

Sample No.,44
Date & Time,'2021-12-30 14:23:08
Data Type,OPC
Voc (V),38.19
Isc (A),7.480
Pmax (W),81.4932
Vpm (V),34.23
Ipm (A),2.380
EFF (%),4.192
FF,0.285
Tc (degC),13.6
Irr (W/m2),62
Nms,1
Rs (Ohm),1.3361
V (V),I (A),P (W)
0.25,7.449,1.8968
0.50,7.417,3.7776
0.76,7.385,5.6422
1.01,7.354,7.4906
1.27,7.322,9.3230
1.52,7.290,11.1391
1.78,7.259,12.9392
2.03,7.227,14.7233
2.29,7.195,16.4910
2.54,7.164,18.2428
2.80,7.132,19.9785
3.05,7.100,21.6978
3.31,7.069,23.4011
3.56,7.037,25.0884
3.81,7.005,26.7595
4.07,6.761,27.5466
4.32,6.738,29.1689
4.58,6.726,30.8308
4.83,6.715,32.4904
5.09,6.705,34.1517
5.34,6.696,35.8081
5.60,6.686,37.4586
5.85,6.676,39.1040
6.11,6.665,40.7353
6.36,6.652,42.3507
6.62,6.637,43.9446
6.87,6.619,45.5092
7.12,6.578,46.9051
7.38,6.537,48.2740
7.63,6.521,49.8182
7.89,6.503,51.3396
8.14,6.175,50.3180
8.40,6.173,51.8762
8.65,6.171,53.4335
8.91,6.170,54.9900
9.16,6.168,56.5456
9.42,6.166,58.1003
9.67,6.164,59.6542
9.93,6.163,61.2072
10.18,6.161,62.7593
10.44,6.159,64.3106
10.69,6.158,65.8610
10.94,6.156,67.4106
11.20,6.154,68.9593
11.45,6.153,70.5071
11.71,6.151,72.0540
11.96,3.705,44.3423
12.22,3.700,45.2304
12.47,3.696,46.1163
12.73,3.691,46.9998
12.98,3.686,47.8810
13.24,3.682,48.7599
13.49,3.677,49.6366
13.75,3.673,50.5109
14.00,3.668,51.3829
14.25,3.664,52.2526
14.51,3.659,53.1200
14.76,3.655,53.9851
15.02,3.650,54.8478
15.27,3.646,55.7083
15.53,3.641,56.5665
15.78,3.637,57.4211
16.04,3.632,58.2657
16.29,3.626,59.1077
16.55,3.621,59.9471
16.80,3.616,60.7839
17.06,3.611,61.6181
17.31,3.606,62.4498
17.57,3.601,63.2788
17.82,3.596,64.1053
18.07,3.591,64.9291
18.33,3.586,65.7504
18.58,3.581,66.5691
18.84,3.576,67.3852
19.09,3.570,68.1987
19.35,3.565,69.0096
19.60,3.560,69.8180
19.86,3.555,70.6237
20.11,3.546,71.3466
20.37,3.528,71.8795
20.62,3.510,72.4030
20.88,3.492,72.9174
21.13,3.473,73.4224
21.38,3.414,73.0372
21.64,3.299,71.4060
21.89,3.143,68.8424
22.15,2.959,65.5561
22.40,2.764,61.9397
22.66,2.679,60.7141
22.91,2.647,60.6677
23.17,2.615,60.6051
23.42,2.593,60.7607
23.68,2.588,61.2975
23.93,2.583,61.8316
24.19,2.577,62.3631
24.44,2.572,62.8919
24.70,2.567,63.4180
24.95,2.562,63.9415
25.20,2.557,64.4623
25.46,2.551,64.9805
25.71,2.546,65.4960
25.97,2.541,66.0088
26.22,2.536,66.5190
26.48,2.530,67.0265
26.73,2.525,67.5314
26.99,2.520,68.0336
27.24,2.515,68.5331
27.50,2.510,69.0300
27.75,2.504,69.5242
28.01,2.499,70.0158
28.26,2.494,70.5047
28.51,2.489,70.9910
28.77,2.484,71.4846
29.02,2.479,71.9763
29.28,2.474,72.4656
29.53,2.469,72.9524
29.79,2.464,73.4367
30.04,2.460,73.9186
30.30,2.455,74.3980
30.55,2.450,74.8749
30.81,2.445,75.3493
31.06,2.440,75.8213
31.32,2.435,76.2908
31.57,2.430,76.7578
31.83,2.426,77.2224
32.08,2.421,77.6844
32.33,2.416,78.1441
32.59,2.411,78.6012
32.84,2.406,79.0559
33.10,2.401,79.5081
33.35,2.396,79.9578
33.61,2.392,80.4050
33.86,2.387,80.8498
34.12,2.382,81.2921
34.37,2.345,80.6251
34.63,2.281,79.0028
34.88,2.178,75.9867
35.14,2.051,72.0931
35.39,1.862,65.9152
35.64,1.682,59.9701
35.90,1.527,54.8597
36.15,1.358,49.1333
36.41,1.236,45.0084
36.66,1.111,40.7603
36.92,0.966,35.6891
37.17,0.791,29.4275
37.43,0.592,22.1850
37.68,0.416,15.6811
37.94,0.219,8.3368

Sample No.,45
Date & Time,'2021-12-30 14:38:30
Data Type,OPC
Voc (V),38.86
Isc (A),5.627
Pmax (W),136.1296
Vpm (V),33.48
Ipm (A),4.066
EFF (%),7.002
FF,0.622
Tc (degC),13.7
Irr (W/m2),71
Nms,1
Rs (Ohm),97.1951
V (V),I (A),P (W)
0.25,5.601,1.4513
0.51,5.575,2.8893
0.77,5.550,4.3140
1.03,5.524,5.7252
1.29,5.498,7.1230
1.55,5.472,8.5075
1.81,5.446,9.8786
2.07,5.420,11.2363
2.33,5.395,12.5805
2.59,5.369,13.9115
2.85,5.343,15.2290
3.10,5.317,16.5330
3.36,5.018,16.9039
3.62,5.017,18.1988
3.88,5.015,19.4930
4.14,5.014,20.7864
4.40,5.012,22.0791
4.66,5.011,23.3709
4.92,5.009,24.6620
5.18,5.008,25.9524
5.44,5.006,27.2420
5.70,5.005,28.5308
5.95,5.003,29.8188
6.21,5.002,31.1061
6.47,5.000,32.3926
6.73,4.997,33.6679
6.99,4.994,34.9398
7.25,4.991,36.2100
7.51,4.988,37.4784
7.77,4.984,38.7452
8.03,4.979,39.9983
8.29,4.969,41.2010
8.55,4.958,42.3965
8.80,4.947,43.5837
9.06,4.936,44.7695
9.32,4.926,45.9521
9.58,4.916,47.1288
9.84,4.905,48.2999
10.10,4.893,49.4491
10.36,4.881,50.5905
10.62,4.870,51.7412
10.88,4.860,52.8876
11.14,4.849,54.0332
11.40,4.839,55.1741
11.65,4.830,56.3142
11.91,4.820,57.4492
12.17,4.811,58.5878
12.43,4.802,59.7233
12.69,4.793,60.8549
12.95,4.784,61.9833
13.21,4.775,63.1072
13.47,4.767,64.2367
13.73,4.760,65.3652
13.99,4.752,66.4897
14.25,4.743,67.5947
14.50,4.734,68.6908
14.76,4.725,69.7842
15.02,4.716,70.8822
15.28,4.708,71.9759
15.54,4.700,73.0681
15.80,4.692,74.1624
16.06,4.684,75.2527
16.32,4.676,76.3356
16.58,4.667,77.3975
16.84,4.658,78.4547
17.10,4.649,79.5106
17.35,4.641,80.5673
17.61,4.632,81.6196
17.87,4.624,82.6670
18.13,4.615,83.7093
18.39,4.606,84.7471
18.65,4.597,85.7709
18.91,4.587,86.7701
19.17,4.577,87.7639
19.43,4.564,88.7039
19.69,4.551,89.6156
19.95,4.540,90.5819
20.20,4.530,91.5673
20.46,4.521,92.5477
20.72,4.509,93.4723
20.98,4.496,94.3758
21.24,4.483,95.2586
21.50,4.469,96.1222
21.76,4.456,96.9852
22.02,4.443,97.8496
22.28,4.429,98.7056
22.54,4.416,99.5492
22.80,4.402,100.3859
23.05,4.390,101.2342
23.31,4.377,102.0763
23.57,4.365,102.9316
23.83,4.354,103.7972
24.09,4.343,104.6570
24.35,4.333,105.5345
24.61,4.323,106.4150
24.87,4.313,107.2904
25.13,4.304,108.1891
25.39,4.297,109.1120
25.65,4.289,110.0310
25.90,4.282,110.9461
26.16,4.274,111.8663
26.42,4.269,112.8234
26.68,4.263,113.7776
26.94,4.257,114.7288
27.20,4.252,115.6771
27.46,4.246,116.6225
27.72,4.240,117.5717
27.98,4.235,118.5310
28.24,4.230,119.4877
28.50,4.225,120.4419
28.75,4.221,121.3934
29.01,4.216,122.3424
29.27,4.211,123.2888
29.53,4.205,124.2190
29.79,4.199,125.1345
30.05,4.193,126.0468
30.31,4.188,126.9562
30.57,4.182,127.8625
30.83,4.176,128.7658
31.09,4.169,129.6356
31.35,4.162,130.4826
31.60,4.154,131.3257
31.86,4.147,132.1650
32.12,4.139,133.0004
32.38,4.129,133.7439
32.64,4.119,134.4690
32.90,4.108,135.1887
33.16,4.092,135.7292
33.42,4.070,136.0587
33.68,4.025,135.5971
33.94,3.934,133.5518
34.20,3.838,131.2682
34.45,3.711,127.8970
34.71,3.561,123.6466
34.97,3.428,119.9075
35.23,3.277,115.4853
35.49,3.091,109.7454
35.75,2.931,104.8105
36.01,2.716,97.8212
36.27,2.574,93.3906
36.53,2.338,85.4160
36.79,2.109,77.6264
37.05,1.859,68.9119
37.30,1.625,60.6556
37.56,1.364,51.2462
37.82,1.114,42.1714
38.08,0.813,30.9913
38.34,0.542,20.8076
38.60,0.275,10.6214

Sample No.,46
Date & Time,'2021-12-30 14:39:01
Data Type,OPC
Voc (V),38.83
Isc (A),5.233
Pmax (W),131.8801
Vpm (V),33.42
Ipm (A),3.945
EFF (%),6.783
FF,0.649
Tc (degC),13.0
Irr (W/m2),588
Nms,1
Rs (Ohm),1.0201
V (V),I (A),P (W)
0.25,5.213,1.3496
0.51,5.194,2.6891
0.77,5.174,4.0186
1.03,5.155,5.3380
1.29,5.135,6.6473
1.55,5.116,7.9466
1.81,5.096,9.2357
2.07,5.077,10.5149
2.32,5.057,11.7838
2.58,5.038,13.0428
2.84,5.018,14.2915
3.10,4.999,15.5303
3.36,4.953,16.6695
3.62,4.906,17.7831
3.88,4.879,18.9486
4.14,4.857,20.1172
4.40,4.835,21.2800
4.65,4.817,22.4488
4.91,4.805,23.6358
5.17,4.793,24.8159
5.43,4.781,25.9921
5.69,4.771,27.1740
5.95,4.762,28.3583
6.21,4.754,29.5396
6.47,4.746,30.7173
6.73,4.739,31.8965
6.98,4.731,33.0719
7.24,4.725,34.2489
7.50,4.718,35.4225
7.76,4.712,36.6008
8.02,4.708,37.7813
8.28,4.703,38.9592
8.54,4.698,40.1358
8.80,4.693,41.3119
9.06,4.689,42.4856
9.31,4.684,43.6570
9.57,4.680,44.8264
9.83,4.675,45.9937
10.09,4.671,47.1587
10.35,4.666,48.3217
10.61,4.662,49.4877
10.87,4.658,50.6515
11.13,4.654,51.8134
11.39,4.650,52.9731
11.64,4.647,54.1354
11.90,4.643,55.2969
12.16,4.640,56.4566
12.42,4.636,57.6146
12.68,4.633,58.7707
12.94,4.629,59.9207
13.20,4.625,61.0678
13.46,4.621,62.2130
13.71,4.617,63.3561
13.97,4.613,64.4967
14.23,4.609,65.6342
14.49,4.605,66.7696
14.75,4.601,67.9029
15.01,4.597,69.0342
15.27,4.593,70.1606
15.53,4.589,71.2841
15.79,4.585,72.4053
16.04,4.581,73.5244
16.30,4.576,74.6351
16.56,4.571,75.7350
16.82,4.566,76.8321
17.08,4.561,77.9266
17.34,4.555,79.0069
17.60,4.549,80.0807
17.86,4.543,81.1514
18.12,4.536,82.1966
18.37,4.527,83.2207
18.63,4.519,84.2315
18.89,4.508,85.1956
19.15,4.497,86.1502
19.41,4.485,87.0922
19.67,4.473,88.0172
19.93,4.461,88.9281
20.19,4.447,89.8097
20.45,4.433,90.6772
20.70,4.419,91.5288
20.96,4.404,92.3566
21.22,4.388,93.1472
21.48,4.368,93.8699
21.74,4.346,94.5116
22.00,4.328,95.2376
22.26,4.308,95.9216
22.52,4.294,96.7142
22.78,4.282,97.5502
23.03,4.270,98.3847
23.29,4.258,99.2152
23.55,4.248,100.0834
23.81,4.239,100.9772
24.07,4.231,101.8665
24.33,4.223,102.7619
24.59,4.215,103.6583
24.85,4.207,104.5506
25.11,4.199,105.4378
25.36,4.190,106.3194
25.62,4.182,107.1968
25.88,4.174,108.0706
26.14,4.166,108.9425
26.40,4.158,109.8103
26.66,4.150,110.6739
26.92,4.143,111.5622
27.18,4.137,112.4535
27.43,4.130,113.3414
27.69,4.123,114.2259
27.95,4.117,115.1180
28.21,4.111,116.0120
28.47,4.105,116.9027
28.73,4.099,117.7904
28.99,4.093,118.6744
29.25,4.086,119.5522
29.51,4.080,120.4267
29.76,4.074,121.2980
30.02,4.068,122.1661
30.28,4.061,123.0187
30.54,4.054,123.8559
30.80,4.047,124.6894
31.06,4.040,125.5193
31.32,4.033,126.3379
31.58,4.025,127.1392
31.84,4.018,127.9364
32.09,4.010,128.7297
32.35,4.001,129.4686
32.61,3.990,130.1495
32.87,3.979,130.8248
33.13,3.964,131.3556
33.39,3.947,131.8195
33.65,3.918,131.8716
33.91,3.853,130.6908
34.17,3.742,127.8912
34.42,3.601,123.9981
34.68,3.450,119.7047
34.94,3.288,114.9190
35.20,3.144,110.6879
35.46,2.996,106.2830
35.72,2.808,100.3145
35.98,2.616,94.1418
36.24,2.455,88.9844
36.50,2.277,83.1468
36.75,2.026,74.4938
37.01,1.817,67.2805
37.27,1.577,58.7992
37.53,1.315,49.3905
37.79,1.085,41.0133
38.05,0.806,30.6728
38.31,0.559,21.4448
38.57,0.293,11.3350

Sample No.,47
Date & Time,'2021-12-30 14:39:28
Data Type,OPC
Voc (V),38.82
Isc (A),5.104
Pmax (W),133.9060
Vpm (V),33.30
Ipm (A),4.020
EFF (%),6.888
FF,0.675
Tc (degC),13.3
Irr (W/m2),61
Nms,1
Rs (Ohm),0.9702
V (V),I (A),P (W)
0.25,5.080,1.3148
0.51,5.055,2.6171
0.77,5.031,3.9068
1.03,5.007,5.1840
1.29,4.983,6.4486
1.55,4.958,7.7007
1.81,4.934,8.9401
2.07,4.910,10.1671
2.32,4.886,11.3814
2.58,4.861,12.5832
2.84,4.826,13.7398
3.10,4.725,14.6751
3.36,4.691,15.7841
3.62,4.666,16.9089
3.88,4.648,18.0458
4.14,4.632,19.1835
4.39,4.620,20.3302
4.65,4.609,21.4732
4.91,4.598,22.6123
5.17,4.589,23.7545
5.43,4.580,24.8953
5.69,4.572,26.0347
5.95,4.565,27.1764
6.21,4.559,28.3202
6.47,4.553,29.4607
6.72,4.547,30.6023
6.98,4.542,31.7417
7.24,4.536,32.8783
7.50,4.532,34.0177
7.76,4.527,35.1561
8.02,4.523,36.2922
8.28,4.518,37.4260
8.54,4.514,38.5628
8.79,4.511,39.6976
9.05,4.507,40.8304
9.31,4.503,41.9612
9.57,4.499,43.0914
9.83,4.496,44.2209
10.09,4.492,45.3487
10.35,4.489,46.4746
10.61,4.485,47.5986
10.87,4.482,48.7225
11.12,4.478,49.8459
11.38,4.475,50.9675
11.64,4.472,52.0874
11.90,4.468,53.2055
12.16,4.465,54.3218
12.42,4.462,55.4352
12.68,4.458,56.5468
12.94,4.455,57.6567
13.19,4.451,58.7648
13.45,4.448,59.8711
13.71,4.445,60.9749
13.97,4.441,62.0766
14.23,4.438,63.1765
14.49,4.434,64.2747
14.75,4.431,65.3710
15.01,4.427,66.4663
15.27,4.424,67.5610
15.52,4.420,68.6539
15.78,4.417,69.7451
16.04,4.414,70.8346
16.30,4.410,71.9223
16.56,4.407,73.0075
16.82,4.404,74.0908
17.08,4.400,75.1723
17.34,4.397,76.2520
17.59,4.393,77.3299
17.85,4.390,78.4058
18.11,4.386,79.4775
18.37,4.383,80.5474
18.63,4.379,81.6154
18.89,4.376,82.6815
19.15,4.372,83.7458
19.41,4.368,84.8063
19.67,4.365,85.8629
19.92,4.361,86.9175
20.18,4.357,87.9702
20.44,4.353,89.0210
20.70,4.350,90.0697
20.96,4.346,91.1162
21.22,4.342,92.1607
21.48,4.338,93.2033
21.74,4.334,94.2439
21.99,4.331,95.2826
22.25,4.327,96.3143
22.51,4.322,97.3420
22.77,4.318,98.3676
23.03,4.314,99.3910
23.29,4.310,100.4123
23.55,4.305,101.4172
23.81,4.300,102.4083
24.07,4.295,103.3967
24.32,4.290,104.3824
24.58,4.285,105.3624
24.84,4.279,106.3353
25.10,4.274,107.3054
25.36,4.268,108.2726
25.62,4.262,109.2301
25.88,4.256,110.1750
26.14,4.250,111.1168
26.39,4.244,112.0553
26.65,4.237,112.9731
26.91,4.230,113.8822
27.17,4.223,114.7876
27.43,4.217,115.6969
27.69,4.210,116.6099
27.95,4.204,117.5196
28.21,4.197,118.4260
28.47,4.191,119.3407
28.72,4.185,120.2537
28.98,4.179,121.1636
29.24,4.173,122.0704
29.50,4.167,122.9624
29.76,4.161,123.8502
30.02,4.154,124.7347
30.28,4.148,125.6122
30.54,4.140,126.4664
30.79,4.133,127.3170
31.05,4.126,128.1638
31.31,4.118,128.9698
31.57,4.109,129.7566
31.83,4.100,130.5388
32.09,4.090,131.2810
32.35,4.080,132.0123
32.61,4.069,132.6995
32.87,4.055,133.2950
33.12,4.036,133.7389
33.38,4.003,133.6820
33.64,3.929,132.2012
33.90,3.813,129.3069
34.16,3.684,125.8709
34.42,3.557,122.4739
34.68,3.369,116.8670
34.94,3.215,112.3554
35.19,3.067,107.9710
35.45,2.933,104.0090
35.71,2.763,98.6935
35.97,2.580,92.8311
36.23,2.374,86.0576
36.49,2.216,80.8927
36.75,2.012,73.9823
37.01,1.799,66.6129
37.27,1.564,58.3174
37.52,1.317,49.4289
37.78,1.030,38.9344
38.04,0.763,29.0367
38.30,0.519,19.9129
38.56,0.250,9.6609

Sample No.,48
Date & Time,'2021-12-30 14:40:05
Data Type,OPC
Voc (V),38.79
Isc (A),5.111
Pmax (W),132.8561
Vpm (V),33.22
Ipm (A),3.998
EFF (%),6.834
FF,0.669
Tc (degC),13.6
Irr (W/m2),547
Nms,1
Rs (Ohm),0.9562
V (V),I (A),P (W)
0.25,5.085,1.3154
0.51,5.060,2.6176
0.77,5.034,3.9065
1.03,5.009,5.1822
1.29,4.983,6.4447
1.55,4.957,7.6938
1.81,4.932,8.9298
2.06,4.906,10.1526
2.32,4.881,11.3620
2.58,4.855,12.5583
2.84,4.814,13.6970
3.10,4.709,14.6161
3.36,4.673,15.7143
3.62,4.648,16.8331
3.87,4.629,17.9606
4.13,4.613,19.0928
4.39,4.600,20.2262
4.65,4.588,21.3601
4.91,4.577,22.4949
5.17,4.568,23.6322
5.43,4.560,24.7677
5.69,4.552,25.9039
5.94,4.545,27.0372
6.20,4.538,28.1709
6.46,4.532,29.3039
6.72,4.525,30.4336
6.98,4.520,31.5689
7.24,4.515,32.7023
7.50,4.510,33.8332
7.75,4.506,34.9637
8.01,4.501,36.0950
8.27,4.497,37.2241
8.53,4.493,38.3510
8.79,4.489,39.4764
9.05,4.485,40.6014
9.31,4.481,41.7244
9.56,4.477,42.8452
9.82,4.473,43.9640
10.08,4.468,45.0785
10.34,4.464,46.1901
10.60,4.460,47.2994
10.86,4.456,48.4066
11.12,4.451,49.5106
11.38,4.447,50.6114
11.63,4.442,51.7099
11.89,4.438,52.8060
12.15,4.433,53.8992
12.41,4.429,54.9882
12.67,4.424,56.0749
12.93,4.419,57.1591
13.19,4.415,58.2408
13.44,4.410,59.3193
13.70,4.405,60.3954
13.96,4.401,61.4691
14.22,4.396,62.5408
14.48,4.392,63.6163
14.74,4.387,64.6895
15.00,4.383,65.7605
15.25,4.379,66.8294
15.51,4.375,67.8977
15.77,4.371,68.9664
16.03,4.367,70.0330
16.29,4.363,71.0976
16.55,4.359,72.1601
16.81,4.355,73.2228
17.07,4.351,74.2880
17.32,4.348,75.3513
17.58,4.344,76.4128
17.84,4.341,77.4723
18.10,4.337,78.5301
18.36,4.333,79.5816
18.62,4.329,80.6278
18.88,4.325,81.6720
19.13,4.321,82.7141
19.39,4.317,83.7542
19.65,4.313,84.7937
19.91,4.310,85.8349
20.17,4.306,86.8742
20.43,4.302,87.9115
20.69,4.298,88.9469
20.94,4.295,89.9803
21.20,4.290,91.0036
21.46,4.286,92.0183
21.72,4.282,93.0308
21.98,4.277,94.0409
22.24,4.273,95.0488
22.50,4.268,96.0538
22.76,4.264,97.0562
23.01,4.259,98.0563
23.27,4.255,99.0541
23.53,4.250,100.0496
23.79,4.246,101.0394
24.05,4.241,102.0248
24.31,4.236,103.0077
24.57,4.232,103.9881
24.82,4.227,104.9662
25.08,4.222,105.9341
25.34,4.217,106.8969
25.60,4.212,107.8570
25.86,4.207,108.8145
26.12,4.202,109.7687
26.38,4.196,110.7173
26.63,4.191,111.6632
26.89,4.186,112.6064
27.15,4.181,113.5469
27.41,4.175,114.4790
27.67,4.170,115.4049
27.93,4.164,116.3279
28.19,4.158,117.2481
28.45,4.153,118.1659
28.70,4.147,119.0823
28.96,4.142,119.9959
29.22,4.136,120.9066
29.48,4.131,121.8145
29.74,4.125,122.7096
30.00,4.119,123.5989
30.26,4.113,124.4851
30.51,4.107,125.3682
30.77,4.101,126.2305
31.03,4.094,127.0732
31.29,4.087,127.9124
31.55,4.080,128.7478
31.81,4.070,129.4996
32.07,4.060,130.2326
32.33,4.050,130.9446
32.58,4.038,131.5938
32.84,4.025,132.2317
33.10,4.007,132.6625
33.36,3.976,132.6662
33.62,3.914,131.6261
33.88,3.788,128.3703
34.14,3.638,124.2292
34.39,3.542,121.8553
34.65,3.400,117.8452
34.91,3.252,113.5642
35.17,3.115,109.5897
35.43,2.941,104.2216
35.69,2.771,98.9309
35.95,2.595,93.3089
36.20,2.436,88.2168
36.46,2.220,80.9771
36.72,2.011,73.8747
36.98,1.773,65.6079
37.24,1.532,57.0802
37.50,1.420,53.2688
37.76,1.025,38.7411
38.02,0.787,29.9378
38.27,0.523,20.0212
38.53,0.261,10.0732

Sample No.,49
Date & Time,'2021-12-30 14:40:33
Data Type,OPC
Voc (V),38.77
Isc (A),5.111
Pmax (W),128.4890
Vpm (V),33.61
Ipm (A),3.822
EFF (%),6.609
FF,0.648
Tc (degC),13.7
Irr (W/m2),59
Nms,1
Rs (Ohm),0.7097
V (V),I (A),P (W)
0.25,5.088,1.3154
0.51,5.065,2.6190
0.77,5.042,3.9107
1.03,5.019,5.1905
1.29,4.996,6.4585
1.55,4.973,7.7146
1.80,4.950,8.9588
2.06,4.927,10.1913
2.32,4.904,11.4118
2.58,4.881,12.6202
2.84,4.853,13.8012
3.10,4.766,14.7882
3.36,4.729,15.8961
3.61,4.701,17.0173
3.87,4.684,18.1668
4.13,4.668,19.3116
4.39,4.654,20.4567
4.65,4.642,21.6051
4.91,4.632,22.7527
5.17,4.622,23.8986
5.42,4.613,25.0478
5.68,4.605,26.1939
5.94,4.598,27.3425
6.20,4.591,28.4875
6.46,4.585,29.6392
6.72,4.580,30.7894
6.98,4.575,31.9368
7.23,4.569,33.0796
7.49,4.564,34.2192
7.75,4.558,35.3559
8.01,4.554,36.5005
8.27,4.550,37.6435
8.53,4.546,38.7843
8.78,4.542,39.9230
9.04,4.538,41.0668
9.30,4.535,42.2091
9.56,4.532,43.3496
9.82,4.528,44.4885
10.08,4.525,45.6256
10.34,4.521,46.7602
10.59,4.518,47.8930
10.85,4.515,49.0240
11.11,4.511,50.1532
11.37,4.508,51.2807
11.63,4.505,52.4108
11.89,4.502,53.5401
12.15,4.499,54.6680
12.40,4.496,55.7943
12.66,4.493,56.9190
12.92,4.490,58.0422
13.18,4.487,59.1638
13.44,4.484,60.2837
13.70,4.481,61.4022
13.96,4.478,62.5190
14.21,4.475,63.6344
14.47,4.472,64.7482
14.73,4.469,65.8558
14.99,4.465,66.9614
15.25,4.462,68.0652
15.51,4.459,69.1673
15.76,4.455,70.2676
16.02,4.452,71.3643
16.28,4.448,72.4557
16.54,4.445,73.5453
16.80,4.441,74.6330
17.06,4.437,75.7188
17.32,4.433,76.7992
17.57,4.429,77.8676
17.83,4.425,78.9337
18.09,4.420,79.9975
18.35,4.416,81.0590
18.61,4.410,82.0970
18.87,4.405,83.1315
19.13,4.399,84.1631
19.38,4.392,85.1721
19.64,4.385,86.1573
19.90,4.377,87.1386
20.16,4.366,88.0417
20.42,4.353,88.9038
20.68,4.332,89.6109
20.94,4.304,90.1309
21.19,4.284,90.8298
21.45,4.269,91.6211
21.71,4.260,92.5104
21.97,4.250,93.3945
22.23,4.241,94.2980
22.49,4.232,95.2007
22.74,4.223,96.0910
23.00,4.213,96.9488
23.26,4.203,97.8014
23.52,4.188,98.5335
23.78,4.173,99.2589
24.04,4.158,99.9912
24.30,4.143,100.6930
24.55,4.128,101.3843
24.81,4.114,102.1126
25.07,4.101,102.8406
25.33,4.088,103.5783
25.59,4.076,104.3230
25.85,4.065,105.0978
26.11,4.054,105.8670
26.36,4.045,106.6808
26.62,4.037,107.5001
26.88,4.028,108.3149
27.14,4.021,109.1490
27.40,4.013,109.9901
27.66,4.006,110.8274
27.92,3.999,111.6609
28.17,3.992,112.5116
28.43,3.986,113.3612
28.69,3.979,114.2075
28.95,3.973,115.0504
29.21,3.967,115.8974
29.47,3.961,116.7468
29.72,3.955,117.5931
29.98,3.949,118.4363
30.24,3.943,119.2765
30.50,3.937,120.1027
30.76,3.930,120.9230
31.02,3.924,121.7400
31.28,3.917,122.5538
31.53,3.910,123.3493
31.79,3.902,124.1051
32.05,3.894,124.8567
32.31,3.886,125.6041
32.57,3.877,126.3079
32.83,3.867,126.9811
33.09,3.857,127.6490
33.34,3.842,128.1334
33.60,3.823,128.4818
33.86,3.764,127.4790
34.12,3.615,123.3664
34.38,3.519,121.0245
34.64,3.371,116.7810
34.90,3.186,111.2078
35.15,3.028,106.4927
35.41,2.863,101.4035
35.67,2.654,94.7122
35.93,2.474,88.9219
36.19,2.282,82.6040
36.45,2.106,76.7782
36.70,1.901,69.8120
36.96,1.716,63.4717
37.22,1.485,55.2914
37.48,1.265,47.4196
37.74,1.012,38.2225
38.00,0.756,28.7503
38.26,0.466,17.8318
38.51,0.181,7.0091

Sample No.,50
Date & Time,'2021-12-30 14:42:52
Data Type,OPC
Voc (V),38.78
Isc (A),5.220
Pmax (W),125.9173
Vpm (V),33.38
Ipm (A),3.771
EFF (%),6.477
FF,0.621
Tc (degC),13.4
Irr (W/m2),443
Nms,1
Rs (Ohm),1.0445
V (V),I (A),P (W)
0.25,5.194,1.3428
0.51,5.167,2.6719
0.77,5.140,3.9873
1.03,5.114,5.2889
1.29,5.087,6.5768
1.55,5.061,7.8509
1.80,5.034,9.1112
2.06,5.007,10.3577
2.32,4.981,11.5907
2.58,4.954,12.8097
2.84,4.928,14.0151
3.10,4.868,15.1049
3.36,4.790,16.1012
3.61,4.746,17.1784
3.87,4.716,18.2925
4.13,4.694,19.4175
4.39,4.673,20.5421
4.65,4.656,21.6711
4.91,4.644,22.8139
5.17,4.632,23.9552
5.42,4.621,25.0936
5.68,4.612,26.2330
5.94,4.602,27.3689
6.20,4.594,28.5065
6.46,4.585,29.6395
6.72,4.576,30.7620
6.98,4.566,31.8771
7.23,4.553,32.9627
7.49,4.538,34.0317
7.75,4.522,35.0774
8.01,4.502,36.0897
8.27,4.479,37.0615
8.53,4.446,37.9361
8.79,4.366,38.3815
9.04,4.324,39.1329
9.30,4.302,40.0470
9.56,4.285,40.9983
9.82,4.271,41.9670
10.08,4.260,42.9607
10.34,4.250,43.9587
10.60,4.241,44.9630
10.85,4.235,45.9910
11.11,4.229,47.0158
11.37,4.222,48.0373
11.63,4.217,49.0623
11.89,4.212,50.1002
12.15,4.208,51.1358
12.40,4.203,52.1690
12.66,4.199,53.2000
12.92,4.195,54.2288
13.18,4.191,55.2631
13.44,4.188,56.3052
13.70,4.185,57.3456
13.96,4.181,58.3844
14.21,4.178,59.4217
14.47,4.175,60.4573
14.73,4.172,61.4914
14.99,4.169,62.5238
15.25,4.166,63.5547
15.51,4.163,64.5850
15.77,4.160,65.6138
16.02,4.157,66.6411
16.28,4.154,67.6668
16.54,4.151,68.6909
16.80,4.148,69.7135
17.06,4.145,70.7345
17.32,4.142,71.7539
17.58,4.139,72.7715
17.83,4.135,73.7782
18.09,4.132,74.7830
18.35,4.128,75.7861
18.61,4.125,76.7873
18.87,4.121,77.7866
19.13,4.117,78.7841
19.39,4.114,79.7798
19.64,4.110,80.7701
19.90,4.106,81.7523
20.16,4.102,82.7323
20.42,4.098,83.7103
20.68,4.094,84.6861
20.94,4.090,85.6599
21.20,4.086,86.6315
21.45,4.081,87.5934
21.71,4.077,88.5441
21.97,4.072,89.4924
22.23,4.067,90.4382
22.49,4.062,91.3814
22.75,4.057,92.3222
23.01,4.052,93.2545
23.26,4.047,94.1792
23.52,4.042,95.1011
23.78,4.036,96.0204
24.04,4.031,96.9368
24.30,4.026,97.8503
24.56,4.020,98.7559
24.81,4.015,99.6585
25.07,4.009,100.5584
25.33,4.004,101.4554
25.59,3.998,102.3495
25.85,3.993,103.2396
26.11,3.987,104.1262
26.37,3.982,105.0099
26.62,3.976,105.8907
26.88,3.970,106.7686
27.14,3.965,107.6437
27.40,3.959,108.5163
27.66,3.954,109.3859
27.92,3.948,110.2526
28.18,3.942,111.1165
28.43,3.937,111.9775
28.69,3.931,112.8302
28.95,3.925,113.6778
29.21,3.919,114.5224
29.47,3.914,115.3640
29.73,3.908,116.2026
29.99,3.902,117.0309
30.24,3.895,117.8410
30.50,3.889,118.6478
30.76,3.882,119.4511
31.02,3.875,120.2510
31.28,3.868,121.0313
31.54,3.861,121.7858
31.80,3.853,122.5362
32.05,3.845,123.2826
32.31,3.836,123.9959
32.57,3.825,124.6066
32.83,3.813,125.2113
33.09,3.797,125.6736
33.35,3.774,125.8917
33.61,3.720,125.0455
33.86,3.629,122.9221
34.12,3.509,119.7545
34.38,3.380,116.2299
34.64,3.240,112.2477
34.90,3.084,107.6721
35.16,2.928,102.9715
35.41,2.730,96.7057
35.67,2.559,91.3030
35.93,2.335,83.9444
36.19,2.112,76.4509
36.45,1.978,72.1348
36.71,1.785,65.5595
36.97,1.598,59.0831
37.22,1.393,51.8672
37.48,1.191,44.6788
37.74,0.988,37.3028
38.00,0.732,27.8380
38.26,0.474,18.1714
38.52,0.240,9.2602

Sample No.,51
Date & Time,'2021-12-30 14:43:16
Data Type,OPC
Voc (V),38.80
Isc (A),5.284
Pmax (W),122.5950
Vpm (V),33.38
Ipm (A),3.672
EFF (%),6.306
FF,0.597
Tc (degC),13.3
Irr (W/m2),38
Nms,1
Rs (Ohm),1.0516
V (V),I (A),P (W)
0.25,5.249,1.3577
0.51,5.213,2.6973
0.77,5.178,4.0187
1.03,5.143,5.3220
1.29,5.108,6.6071
1.55,5.073,7.8740
1.81,5.038,9.1226
2.06,5.003,10.3531
2.32,4.967,11.5655
2.58,4.932,12.7598
2.84,4.897,13.9356
3.10,4.793,14.8793
3.36,4.733,15.9160
3.62,4.666,16.9000
3.88,4.622,17.9347
4.13,4.598,19.0335
4.39,4.572,20.1079
4.65,4.549,21.1851
4.91,4.532,22.2745
5.17,4.514,23.3559
5.43,4.498,24.4342
5.69,4.484,25.5186
5.94,4.472,26.6100
6.20,4.461,27.6977
6.46,4.451,28.7844
6.72,4.440,29.8662
6.98,4.428,30.9314
7.24,4.416,31.9871
7.50,4.402,33.0286
7.76,4.388,34.0569
8.01,4.372,35.0592
8.27,4.352,36.0250
8.53,4.327,36.9424
8.79,4.272,37.5740
9.05,4.234,38.3337
9.31,4.212,39.2302
9.57,4.200,40.2036
9.82,4.188,41.1750
10.08,4.180,42.1759
10.34,4.172,43.1725
10.60,4.164,44.1649
10.86,4.158,45.1744
11.12,4.152,46.1888
11.38,4.147,47.2003
11.64,4.141,48.2090
11.89,4.136,49.2148
12.15,4.131,50.2329
12.41,4.128,51.2595
12.67,4.125,52.2844
12.93,4.121,53.3075
13.19,4.118,54.3288
13.45,4.114,55.3484
13.70,4.111,56.3663
13.96,4.108,57.3824
14.22,4.104,58.3976
14.48,4.101,59.4187
14.74,4.099,60.4383
15.00,4.096,61.4565
15.26,4.093,62.4732
15.52,4.090,63.4885
15.77,4.087,64.5023
16.03,4.085,65.5146
16.29,4.082,66.5255
16.55,4.079,67.5350
16.81,4.076,68.5430
17.07,4.073,69.5473
17.33,4.070,70.5488
17.58,4.067,71.5487
17.84,4.064,72.5471
18.10,4.061,73.5439
18.36,4.058,74.5392
18.62,4.055,75.5329
18.88,4.052,76.5250
19.14,4.049,77.5156
19.40,4.046,78.5046
19.65,4.043,79.4893
19.91,4.040,80.4711
20.17,4.036,81.4513
20.43,4.033,82.4298
20.69,4.030,83.4066
20.95,4.027,84.3818
21.21,4.024,85.3553
21.46,4.020,86.3271
21.72,4.017,87.2973
21.98,4.014,88.2640
22.24,4.010,89.2208
22.50,4.006,90.1756
22.76,4.003,91.1286
23.02,3.999,92.0797
23.28,3.995,93.0289
23.53,3.992,93.9762
23.79,3.988,94.9216
24.05,3.984,95.8651
24.31,3.980,96.7965
24.57,3.976,97.7203
24.83,3.972,98.6418
25.09,3.967,99.5611
25.34,3.963,100.4782
25.60,3.959,101.3930
25.86,3.955,102.3056
26.12,3.950,103.2089
26.38,3.945,104.0893
26.64,3.939,104.9668
26.90,3.934,105.8416
27.16,3.928,106.7136
27.41,3.923,107.5828
27.67,3.917,108.4395
27.93,3.910,109.2533
28.19,3.903,110.0634
28.45,3.896,110.8698
28.71,3.889,111.6725
28.97,3.881,112.4450
29.23,3.872,113.1929
29.48,3.863,113.9363
29.74,3.854,114.6751
30.00,3.844,115.3629
30.26,3.833,116.0247
30.52,3.822,116.6809
30.78,3.810,117.2997
31.04,3.797,117.8868
31.29,3.784,118.4672
31.55,3.772,119.0611
31.81,3.760,119.6533
32.07,3.748,120.2393
32.33,3.735,120.7875
32.59,3.722,121.3228
32.85,3.708,121.8419
33.11,3.691,122.2146
33.36,3.673,122.5782
33.62,3.641,122.4511
33.88,3.572,121.0645
34.14,3.474,118.6205
34.40,3.322,114.3059
34.66,3.166,109.7711
34.92,2.983,104.2023
35.17,2.836,99.7988
35.43,2.654,94.0708
35.69,2.523,90.0853
35.95,2.353,84.6120
36.21,2.177,78.8739
36.47,2.002,73.0327
36.73,1.825,67.0490
36.99,1.613,59.6709
37.24,1.434,53.4272
37.50,1.210,45.3897
37.76,0.956,36.1271
38.02,0.718,27.3109
38.28,0.478,18.3079
38.54,0.240,9.2583

Sample No.,52
Date & Time,'2021-12-30 14:43:43
Data Type,OPC
Voc (V),38.82
Isc (A),5.138
Pmax (W),121.1104
Vpm (V),33.91
Ipm (A),3.571
EFF (%),6.229
FF,0.607
Tc (degC),13.1
Irr (W/m2),445
Nms,1
Rs (Ohm),0.9614
V (V),I (A),P (W)
0.25,5.101,1.3202
0.51,5.064,2.6214
0.77,5.027,3.9035
1.03,4.990,5.1665
1.29,4.953,6.4104
1.55,4.916,7.6354
1.81,4.879,8.8411
2.07,4.843,10.0277
2.32,4.806,11.1953
2.58,4.769,12.3437
2.84,4.687,13.3460
3.10,4.569,14.1925
3.36,4.507,15.1653
3.62,4.469,16.1933
3.88,4.436,17.2250
4.14,4.414,18.2799
4.39,4.396,19.3425
4.65,4.378,20.4001
4.91,4.364,21.4649
5.17,4.352,22.5297
5.43,4.341,23.5949
5.69,4.330,24.6604
5.95,4.321,25.7240
6.21,4.311,26.7825
6.47,4.301,27.8358
6.72,4.291,28.8808
6.98,4.278,29.8963
7.24,4.265,30.9111
7.50,4.253,31.9267
7.76,4.241,32.9299
8.02,4.227,33.9210
8.28,4.211,34.8813
8.54,4.192,35.8092
8.79,4.170,36.6986
9.05,4.148,37.5822
9.31,4.129,38.4802
9.57,4.116,39.4241
9.83,4.105,40.3752
10.09,4.096,41.3464
10.35,4.088,42.3323
10.61,4.081,43.3145
10.87,4.074,44.2930
11.12,4.070,45.2965
11.38,4.065,46.3009
11.64,4.061,47.3030
11.90,4.057,48.3030
12.16,4.052,49.3007
12.42,4.048,50.2962
12.68,4.044,51.2954
12.94,4.041,52.2963
13.19,4.037,53.2953
13.45,4.034,54.2925
13.71,4.030,55.2878
13.97,4.026,56.2813
14.23,4.023,57.2730
14.49,4.019,58.2629
14.75,4.016,59.2508
15.01,4.012,60.2369
15.27,4.009,61.2212
15.52,4.005,62.2036
15.78,4.002,63.1842
16.04,3.998,64.1629
16.30,3.994,65.1398
16.56,3.991,66.1148
16.82,3.987,67.0860
17.08,3.984,68.0552
17.34,3.980,69.0225
17.59,3.976,69.9879
17.85,3.972,70.9514
18.11,3.969,71.9130
18.37,3.965,72.8727
18.63,3.961,73.8317
18.89,3.958,74.7927
19.15,3.955,75.7520
19.41,3.951,76.7096
19.67,3.948,77.6653
19.92,3.944,78.6193
20.18,3.941,79.5716
20.44,3.938,80.5221
20.70,3.934,81.4708
20.96,3.931,82.4183
21.22,3.927,83.3643
21.48,3.924,84.3087
21.74,3.921,85.2512
21.99,3.917,86.1920
22.25,3.914,87.1311
22.51,3.911,88.0685
22.77,3.907,89.0041
23.03,3.904,89.9379
23.29,3.900,90.8689
23.55,3.897,91.7980
23.81,3.894,92.7253
24.07,3.890,93.6509
24.32,3.887,94.5747
24.58,3.883,95.4967
24.84,3.880,96.4169
25.10,3.877,97.3353
25.36,3.873,98.2520
25.62,3.869,99.1450
25.88,3.865,100.0349
26.14,3.860,100.9225
26.39,3.856,101.8079
26.65,3.852,102.6911
26.91,3.847,103.5721
27.17,3.843,104.4508
27.43,3.838,105.3009
27.69,3.832,106.1404
27.95,3.827,106.9771
28.21,3.821,107.8109
28.47,3.815,108.6418
28.72,3.810,109.4668
28.98,3.803,110.2568
29.24,3.796,111.0433
29.50,3.790,111.8262
29.76,3.783,112.6057
30.02,3.775,113.3445
30.28,3.764,113.9973
30.54,3.753,114.6445
30.79,3.742,115.2798
31.05,3.731,115.8895
31.31,3.719,116.4932
31.57,3.707,117.0715
31.83,3.694,117.6061
32.09,3.680,118.1338
32.35,3.667,118.6538
32.61,3.654,119.1667
32.87,3.640,119.6676
33.12,3.626,120.1366
33.38,3.612,120.5982
33.64,3.593,120.8940
33.90,3.571,121.1029
34.16,3.510,119.9413
34.42,3.403,117.1507
34.68,3.281,113.8047
34.94,3.142,109.8069
35.19,2.979,104.8660
35.45,2.850,101.0824
35.71,2.649,94.6338
35.97,2.483,89.3417
36.23,2.299,83.3065
36.49,2.089,76.2538
36.75,1.964,72.1912
37.01,1.688,62.4871
37.27,1.467,54.6944
37.52,1.234,46.3322
37.78,1.011,38.2220
38.04,0.757,28.8308
38.30,0.485,18.6016
38.56,0.235,9.0996

Sample No.,53
Date & Time,'2021-12-30 14:44:02
Data Type,OPC
Voc (V),38.81
Isc (A),5.086
Pmax (W),118.6764
Vpm (V),33.56
Ipm (A),3.535
EFF (%),6.104
FF,0.601
Tc (degC),-0.1
Irr (W/m2),-----
Nms,1
Rs (Ohm),1.0773
V (V),I (A),P (W)
0.25,5.047,1.3062
0.51,5.008,2.5923
0.77,4.969,3.8583
1.03,4.930,5.1040
1.29,4.891,6.3296
1.55,4.852,7.5351
1.81,4.813,8.7204
2.07,4.774,9.8856
2.32,4.736,11.0306
2.58,4.697,12.1553
2.84,4.584,13.0496
3.10,4.449,13.8188
3.36,4.397,14.7927
3.62,4.365,15.8179
3.88,4.340,16.8473
4.14,4.315,17.8707
4.39,4.296,18.9020
4.65,4.276,19.9216
4.91,4.264,20.9698
5.17,4.255,22.0229
5.43,4.245,23.0723
5.69,4.236,24.1177
5.95,4.226,25.1581
6.21,4.217,26.1929
6.46,4.207,27.2228
6.72,4.198,28.2472
6.98,4.188,29.2666
7.24,4.178,30.2744
7.50,4.166,31.2652
7.76,4.154,32.2502
8.02,4.142,33.2297
8.28,4.129,34.1962
8.53,4.115,35.1443
8.79,4.102,36.0970
9.05,4.090,37.0501
9.31,4.079,38.0058
9.57,4.069,38.9635
9.83,4.059,39.9168
10.09,4.052,40.8957
10.35,4.044,41.8710
10.61,4.037,42.8425
10.86,4.031,43.8203
11.12,4.027,44.8140
11.38,4.022,45.8055
11.64,4.018,46.7946
11.90,4.013,47.7814
12.16,4.009,48.7659
12.42,4.005,49.7526
12.68,4.001,50.7454
12.93,3.998,51.7365
13.19,3.994,52.7258
13.45,3.991,53.7133
13.71,3.988,54.6991
13.97,3.984,55.6830
14.23,3.981,56.6652
14.49,3.977,57.6437
14.75,3.973,58.6179
15.00,3.970,59.5903
15.26,3.966,60.5606
15.52,3.962,61.5291
15.78,3.958,62.4956
16.04,3.955,63.4602
16.30,3.951,64.4225
16.56,3.947,65.3744
16.82,3.942,66.3240
17.07,3.938,67.2714
17.33,3.934,68.2167
17.59,3.930,69.1597
17.85,3.925,70.1005
18.11,3.921,71.0352
18.37,3.916,71.9615
18.63,3.911,72.8853
18.89,3.906,73.8066
19.15,3.902,74.7253
19.40,3.897,75.6416
19.66,3.892,76.5579
19.92,3.888,77.4754
20.18,3.883,78.3906
20.44,3.879,79.3034
20.70,3.874,80.2139
20.96,3.870,81.1220
21.22,3.865,82.0278
21.47,3.861,82.9329
21.73,3.856,83.8360
21.99,3.852,84.7367
22.25,3.847,85.6352
22.51,3.843,86.5313
22.77,3.838,87.4252
23.03,3.834,88.3170
23.29,3.830,89.2100
23.54,3.826,90.1008
23.80,3.821,90.9894
24.06,3.817,91.8758
24.32,3.813,92.7600
24.58,3.808,93.6419
24.84,3.804,94.5217
25.10,3.800,95.4018
25.36,3.796,96.2802
25.61,3.792,97.1565
25.87,3.788,98.0306
26.13,3.783,98.9025
26.39,3.779,99.7724
26.65,3.775,100.6400
26.91,3.771,101.4999
27.17,3.766,102.3448
27.43,3.761,103.1872
27.69,3.756,104.0272
27.94,3.752,104.8646
28.20,3.747,105.6996
28.46,3.742,106.5320
28.72,3.736,107.3446
28.98,3.731,108.1466
29.24,3.725,108.9458
29.50,3.719,109.7419
29.76,3.714,110.5352
30.01,3.708,111.3255
30.27,3.700,112.0466
30.53,3.692,112.7615
30.79,3.684,113.4724
31.05,3.676,114.1791
31.31,3.665,114.7890
31.57,3.654,115.3689
31.83,3.642,115.9427
32.08,3.629,116.4560
32.34,3.615,116.9556
32.60,3.601,117.4372
32.86,3.587,117.8904
33.12,3.572,118.3360
33.38,3.551,118.5464
33.64,3.521,118.4763
33.90,3.464,117.4539
34.15,3.358,114.7145
34.41,3.237,111.4245
34.67,3.082,106.8889
34.93,2.932,102.4677
35.19,2.793,98.3339
35.45,2.666,94.5372
35.71,2.515,89.8288
35.97,2.327,83.7401
36.23,2.165,78.4478
36.48,1.994,72.7676
36.74,1.789,65.7632
37.00,1.591,58.8802
37.26,1.391,51.8440
37.52,1.188,44.5822
37.78,0.946,35.7427
38.04,0.696,26.4940
38.30,0.484,18.5574
38.55,0.233,9.0114

Sample No.,54
Date & Time,'2021-12-30 14:46:41
Data Type,OPC
Voc (V),38.64
Isc (A),4.045
Pmax (W),106.0268
Vpm (V),33.05
Ipm (A),3.207
EFF (%),5.454
FF,0.678
Tc (degC),12.7
Irr (W/m2),359
Nms,1
Rs (Ohm),3.9063
V (V),I (A),P (W)
0.25,4.024,1.0366
0.51,4.003,2.0625
0.77,3.982,3.0777
1.03,3.961,4.0822
1.28,3.940,5.0758
1.54,3.919,6.0588
1.80,3.899,7.0311
2.06,3.878,7.9927
2.31,3.770,8.7413
2.57,3.740,9.6348
2.83,3.723,10.5516
3.09,3.711,11.4745
3.34,3.702,12.4008
3.60,3.695,13.3283
3.86,3.688,14.2537
4.12,3.682,15.1771
4.37,3.676,16.1009
4.63,3.671,17.0228
4.89,3.665,17.9406
5.15,3.659,18.8547
5.40,3.653,19.7640
5.66,3.647,20.6689
5.92,3.640,21.5721
6.18,3.634,22.4727
6.44,3.628,23.3656
6.69,3.621,24.2527
6.95,3.613,25.1310
7.21,3.605,26.0053
7.47,3.597,26.8778
7.72,3.590,27.7484
7.98,3.583,28.6171
8.24,3.576,29.4865
8.50,3.570,30.3552
8.75,3.564,31.2239
9.01,3.559,32.0938
9.27,3.554,32.9610
9.53,3.549,33.8310
9.78,3.544,34.6997
10.04,3.540,35.5660
10.30,3.536,36.4361
10.56,3.532,37.3059
10.81,3.528,38.1736
11.07,3.524,39.0398
11.33,3.521,39.9101
11.59,3.517,40.7787
11.84,3.514,41.6456
12.10,3.511,42.5107
12.36,3.508,43.3801
12.62,3.505,44.2520
12.88,3.503,45.1225
13.13,3.500,45.9917
13.39,3.498,46.8597
13.65,3.495,47.7263
13.91,3.493,48.5931
14.16,3.490,49.4595
14.42,3.488,50.3247
14.68,3.486,51.1887
14.94,3.483,52.0514
15.19,3.481,52.9129
15.45,3.478,53.7726
15.71,3.476,54.6256
15.97,3.473,55.4772
16.22,3.470,56.3274
16.48,3.467,57.1762
16.74,3.465,58.0236
17.00,3.462,58.8651
17.25,3.458,59.6984
17.51,3.455,60.5299
17.77,3.452,61.3596
18.03,3.448,62.1876
18.29,3.444,63.0030
18.54,3.440,63.8115
18.80,3.436,64.6177
19.06,3.431,65.4218
19.32,3.425,66.1858
19.57,3.419,66.9391
19.83,3.413,67.6997
20.09,3.408,68.4819
20.35,3.403,69.2616
20.60,3.398,70.0389
20.86,3.393,70.8073
21.12,3.388,71.5714
21.38,3.382,72.3328
21.63,3.378,73.1008
21.89,3.373,73.8772
22.15,3.369,74.6514
22.41,3.365,75.4234
22.66,3.361,76.2032
22.92,3.358,77.0010
23.18,3.355,77.7974
23.44,3.352,78.5922
23.69,3.349,79.3854
23.95,3.346,80.1772
24.21,3.343,80.9724
24.47,3.341,81.7823
24.73,3.339,82.5911
24.98,3.337,83.3988
25.24,3.335,84.2054
25.50,3.333,85.0109
25.76,3.331,85.8154
26.01,3.329,86.6187
26.27,3.327,87.4210
26.53,3.324,88.2212
26.79,3.322,89.0192
27.04,3.320,89.8161
27.30,3.318,90.6118
27.56,3.316,91.4065
27.82,3.313,92.1999
28.07,3.311,92.9923
28.33,3.309,93.7836
28.59,3.307,94.5737
28.85,3.304,95.3498
29.10,3.302,96.1223
29.36,3.299,96.8934
29.62,3.296,97.6631
29.88,3.293,98.4314
30.13,3.291,99.1983
30.39,3.288,99.9638
30.65,3.284,100.6811
30.91,3.279,101.3815
31.17,3.274,102.0795
31.42,3.270,102.7750
31.68,3.264,103.4405
31.94,3.258,104.0862
32.20,3.252,104.7288
32.45,3.244,105.3111
32.71,3.233,105.7826
32.97,3.215,106.0203
33.23,3.170,105.3648
33.48,3.110,104.1554
33.74,3.026,102.1293
34.00,2.943,100.0942
34.26,2.841,97.3391
34.51,2.767,95.5191
34.77,2.673,92.9650
35.03,2.556,89.5607
35.29,2.447,86.3676
35.54,2.318,82.4226
35.80,2.159,77.3402
36.06,2.007,72.4167
36.32,1.861,67.6206
36.58,1.686,61.6859
36.83,1.498,55.2097
37.09,1.334,49.5177
37.35,1.130,42.2374
37.61,0.909,34.1979
37.86,0.675,25.5678
38.12,0.453,17.2942
38.38,0.213,8.1782

Sample No.,55
Date & Time,'2021-12-30 14:47:09
Data Type,OPC
Voc (V),38.65
Isc (A),3.986
Pmax (W),105.9227
Vpm (V),32.88
Ipm (A),3.221
EFF (%),5.448
FF,0.687
Tc (degC),12.5
Irr (W/m2),387
Nms,1
Rs (Ohm),1.2036
V (V),I (A),P (W)
0.25,3.974,1.0242
0.51,3.962,2.0423
0.77,3.950,3.0544
1.03,3.938,4.0602
1.28,3.927,5.0599
1.54,3.915,6.0535
1.80,3.903,7.0410
2.06,3.891,8.0223
2.31,3.855,8.9413
2.57,3.826,9.8612
2.83,3.813,10.8106
3.09,3.803,11.7625
3.35,3.796,12.7173
3.60,3.789,13.6727
3.86,3.784,14.6304
4.12,3.780,15.5881
4.38,3.776,16.5450
4.63,3.773,17.5016
4.89,3.769,18.4576
5.15,3.766,19.4120
5.41,3.763,20.3651
5.66,3.759,21.3167
5.92,3.756,22.2656
6.18,3.752,23.2107
6.44,3.749,24.1539
6.70,3.745,25.0937
6.95,3.741,26.0313
7.21,3.736,26.9625
7.47,3.731,27.8890
7.73,3.726,28.8065
7.98,3.719,29.7151
8.24,3.710,30.6019
8.50,3.696,31.4358
8.76,3.671,32.1711
9.01,3.588,32.3644
9.27,3.500,32.4732
9.53,3.484,33.2207
9.79,3.472,34.0008
10.05,3.463,34.8044
10.30,3.455,35.6234
10.56,3.450,36.4544
10.82,3.444,37.2824
11.08,3.441,38.1308
11.33,3.437,38.9788
11.59,3.434,39.8250
11.85,3.430,40.6695
12.11,3.427,41.5177
12.36,3.425,42.3700
12.62,3.422,43.2210
12.88,3.420,44.0707
13.14,3.417,44.9192
13.40,3.415,45.7663
13.65,3.412,46.6148
13.91,3.411,47.4675
14.17,3.409,48.3192
14.43,3.407,49.1699
14.68,3.405,50.0196
14.94,3.403,50.8684
15.20,3.401,51.7161
15.46,3.399,52.5629
15.71,3.397,53.4092
15.97,3.395,54.2590
16.23,3.394,55.1079
16.49,3.392,55.9560
16.75,3.391,56.8033
17.00,3.389,57.6497
17.26,3.387,58.4954
17.52,3.386,59.3401
17.78,3.384,60.1841
18.03,3.383,61.0272
18.29,3.381,61.8699
18.55,3.380,62.7140
18.81,3.378,63.5573
19.06,3.377,64.3999
19.32,3.375,65.2417
19.58,3.374,66.0828
19.84,3.372,66.9231
20.10,3.371,67.7626
20.35,3.369,68.6014
20.61,3.368,69.4394
20.87,3.366,70.2767
21.13,3.365,71.1132
21.38,3.363,71.9515
21.64,3.362,72.7892
21.90,3.361,73.6262
22.16,3.359,74.4625
22.41,3.358,75.2981
22.67,3.357,76.1331
22.93,3.355,76.9673
23.19,3.354,77.8008
23.45,3.353,78.6337
23.70,3.351,79.4658
23.96,3.350,80.2973
24.22,3.349,81.1281
24.48,3.347,81.9529
24.73,3.345,82.7727
24.99,3.344,83.5915
25.25,3.342,84.4095
25.51,3.340,85.2265
25.77,3.338,86.0427
26.02,3.337,86.8580
26.28,3.335,87.6724
26.54,3.333,88.4858
26.80,3.331,89.2984
27.05,3.329,90.1005
27.31,3.327,90.8971
27.57,3.325,91.6926
27.83,3.323,92.4870
28.08,3.320,93.2802
28.34,3.318,94.0722
28.60,3.316,94.8630
28.86,3.314,95.6528
29.12,3.311,96.4222
29.37,3.308,97.1882
29.63,3.305,97.9528
29.89,3.302,98.7158
30.15,3.299,99.4773
30.40,3.296,100.2372
30.66,3.292,100.9573
30.92,3.287,101.6716
31.18,3.283,102.3837
31.43,3.279,103.0936
31.69,3.273,103.7487
31.95,3.266,104.3800
32.21,3.259,105.0079
32.47,3.247,105.4504
32.72,3.232,105.7886
32.98,3.209,105.8678
33.24,3.163,105.1584
33.50,3.104,103.9913
33.75,3.023,102.0838
34.01,2.936,99.8730
34.27,2.839,97.3095
34.53,2.725,94.1272
34.78,2.622,91.2304
35.04,2.495,87.4508
35.30,2.313,81.6776
35.56,2.171,77.2083
35.82,2.049,73.4160
36.07,1.923,69.3982
36.33,1.785,64.8689
36.59,1.649,60.3783
36.85,1.601,59.0350
37.10,1.282,47.6046
37.36,1.091,40.7846
37.62,0.858,32.2875
37.88,0.635,24.0574
38.13,0.407,15.5302
38.39,0.338,13.0120
